%OpenBCI Raw EEG Data
%
%Sample Rate = 250.0 Hz
%First Column = SampleIndex
%Last Column = Timestamp 
%Other Columns = EEG data in microvolts followed by Accel Data (in G) interleaved with Aux Data
0, 0.00, 0.00, 0.00, 0.00, 0.00, 0.00, 0.00, 0.00, 0.190, 0.946, -0.272, 02:43:47.863
1, 30243.72, 8203.09, 187500.00, 187500.00, 187500.00, 187500.00, 187500.00, 187500.00, 0.000, 0.000, 0.000, 02:43:48.346
2, 30241.75, 8201.73, 187500.00, 187500.00, 187500.00, 187500.00, 187500.00, 187500.00, 0.000, 0.000, 0.000, 02:43:48.346
3, 30218.91, 8175.51, 187500.00, 187500.00, 187500.00, 187500.00, 187500.00, 187500.00, 0.000, 0.000, 0.000, 02:43:48.346
4, 30219.18, 8163.71, 187500.00, 187500.00, 187500.00, 187500.00, 187500.00, 187500.00, 0.000, 0.000, 0.000, 02:43:48.346
5, 30245.04, 8182.15, 187500.00, 187500.00, 187500.00, 187500.00, 187500.00, 187500.00, 0.000, 0.000, 0.000, 02:43:48.347
6, 30239.92, 8184.54, 187500.00, 187500.00, 187500.00, 187500.00, 187500.00, 187500.00, 0.000, 0.000, 0.000, 02:43:48.347
7, 30232.92, 8182.73, 187500.00, 187500.00, 187500.00, 187500.00, 187500.00, 187500.00, 0.000, 0.000, 0.000, 02:43:48.347
8, 30229.12, 8170.37, 187500.00, 187500.00, 187500.00, 187500.00, 187500.00, 187500.00, 0.180, 0.926, -0.370, 02:43:48.347
9, 30252.35, 8201.10, 187500.00, 187500.00, 187500.00, 187500.00, 187500.00, 187500.00, 0.000, 0.000, 0.000, 02:43:48.347
10, 30242.74, 8183.87, 187500.00, 187500.00, 187500.00, 187500.00, 187500.00, 187500.00, 0.000, 0.000, 0.000, 02:43:48.347
11, 30231.27, 8177.47, 187500.00, 187500.00, 187500.00, 187500.00, 187500.00, 187500.00, 0.000, 0.000, 0.000, 02:43:48.347
12, 30221.03, 8173.21, 187500.00, 187500.00, 187500.00, 187500.00, 187500.00, 187500.00, 0.000, 0.000, 0.000, 02:43:48.347
13, 30237.46, 8175.17, 187500.00, 187500.00, 187500.00, 187500.00, 187500.00, 187500.00, 0.000, 0.000, 0.000, 02:43:48.348
14, 30244.44, 8181.10, 187500.00, 187500.00, 187500.00, 187500.00, 187500.00, 187500.00, 0.000, 0.000, 0.000, 02:43:48.348
15, 30241.55, 8175.13, 187500.00, 187500.00, 187500.00, 187500.00, 187500.00, 187500.00, 0.000, 0.000, 0.000, 02:43:48.348
16, 30218.04, 8147.72, 187500.00, 187500.00, 187500.00, 187500.00, 187500.00, 187500.00, 0.000, 0.000, 0.000, 02:43:48.348
17, 30224.43, 8166.57, 187500.00, 187500.00, 187500.00, 187500.00, 187500.00, 187500.00, 0.180, 0.916, -0.418, 02:43:48.348
18, 30242.49, 8188.90, 187500.00, 187500.00, 187500.00, 187500.00, 187500.00, 187500.00, 0.000, 0.000, 0.000, 02:43:48.348
19, 30230.85, 8173.50, 187500.00, 187500.00, 187500.00, 187500.00, 187500.00, 187500.00, 0.000, 0.000, 0.000, 02:43:48.348
20, 30216.05, 8152.22, 187500.00, 187500.00, 187500.00, 187500.00, 187500.00, 187500.00, 0.000, 0.000, 0.000, 02:43:48.348
21, 30225.17, 8161.43, 187500.00, 187500.00, 187500.00, 187500.00, 187500.00, 187500.00, 0.000, 0.000, 0.000, 02:43:48.348
22, 30233.77, 8158.63, 187500.00, 187500.00, 187500.00, 187500.00, 187500.00, 187500.00, 0.000, 0.000, 0.000, 02:43:48.349
23, 30231.72, 8136.24, 187500.00, 187500.00, 187500.00, 187500.00, 187500.00, 187500.00, 0.000, 0.000, 0.000, 02:43:48.349
24, 30204.27, 8145.85, 187500.00, 187500.00, 187500.00, 187500.00, 187500.00, 187500.00, 0.000, 0.000, 0.000, 02:43:48.349
25, 30210.68, 8154.34, 187500.00, 187500.00, 187500.00, 187500.00, 187500.00, 187500.00, 0.000, 0.000, 0.000, 02:43:48.349
26, 30243.79, 8174.81, 187500.00, 187500.00, 187500.00, 187500.00, 187500.00, 187500.00, 0.000, 0.000, 0.000, 02:43:48.349
27, 30237.82, 8175.22, 187500.00, 187500.00, 187500.00, 187500.00, 187500.00, 187500.00, 0.172, 0.910, -0.440, 02:43:48.349
28, 30208.98, 8153.54, 187500.00, 187500.00, 187500.00, 187500.00, 187500.00, 187500.00, 0.000, 0.000, 0.000, 02:43:48.349
29, 30204.92, 8144.48, 187500.00, 187500.00, 187500.00, 187500.00, 187500.00, 187500.00, 0.000, 0.000, 0.000, 02:43:48.349
30, 30244.84, 8175.22, 187500.00, 187500.00, 187500.00, 187500.00, 187500.00, 187500.00, 0.000, 0.000, 0.000, 02:43:48.350
31, 30248.86, 8191.11, 187500.00, 187500.00, 187500.00, 187500.00, 187500.00, 187500.00, 0.000, 0.000, 0.000, 02:43:48.350
32, 30221.86, 8162.10, 187500.00, 187500.00, 187500.00, 187500.00, 187500.00, 187500.00, 0.000, 0.000, 0.000, 02:43:48.350
33, 30208.36, 8142.94, 187500.00, 187500.00, 187500.00, 187500.00, 187500.00, 187500.00, 0.000, 0.000, 0.000, 02:43:48.350
34, 30233.33, 8170.48, 187500.00, 187500.00, 187500.00, 187500.00, 187500.00, 187500.00, 0.000, 0.000, 0.000, 02:43:48.350
35, 30233.77, 8168.85, 187500.00, 187500.00, 187500.00, 187500.00, 187500.00, 187500.00, 0.000, 0.000, 0.000, 02:43:48.350
36, 30217.26, 8145.29, 187500.00, 187500.00, 187500.00, 187500.00, 187500.00, 187500.00, 0.000, 0.000, 0.000, 02:43:48.350
37, 30188.55, 8133.62, 187500.00, 187500.00, 187500.00, 187500.00, 187500.00, 187500.00, 0.172, 0.904, -0.448, 02:43:48.350
38, 30210.84, 8163.48, 187500.00, 187500.00, 187500.00, 187500.00, 187500.00, 187500.00, 0.000, 0.000, 0.000, 02:43:48.351
39, 30226.44, 8173.34, 187500.00, 187500.00, 187500.00, 187500.00, 187500.00, 187500.00, 0.000, 0.000, 0.000, 02:43:48.351
40, 30223.54, 8151.93, 187500.00, 187500.00, 187500.00, 187500.00, 187500.00, 187500.00, 0.000, 0.000, 0.000, 02:43:48.351
41, 30199.35, 8125.35, 187500.00, 187500.00, 187500.00, 187500.00, 187500.00, 187500.00, 0.000, 0.000, 0.000, 02:43:48.351
42, 30218.69, 8140.13, 187500.00, 187500.00, 187500.00, 187500.00, 187500.00, 187500.00, 0.000, 0.000, 0.000, 02:43:48.351
43, 30242.29, 8160.64, 187500.00, 187500.00, 187500.00, 187500.00, 187500.00, 187500.00, 0.000, 0.000, 0.000, 02:43:48.351
44, 30233.37, 8158.03, 187500.00, 187500.00, 187500.00, 187500.00, 187500.00, 187500.00, 0.000, 0.000, 0.000, 02:43:48.351
45, 30213.28, 8148.31, 187500.00, 187500.00, 187500.00, 187500.00, 187500.00, 187500.00, 0.000, 0.000, 0.000, 02:43:48.352
46, 30226.29, 8159.30, 187500.00, 187500.00, 187500.00, 187500.00, 187500.00, 187500.00, 0.000, 0.000, 0.000, 02:43:48.352
47, 30246.76, 8176.36, 187500.00, 187500.00, 187500.00, 187500.00, 187500.00, 187500.00, 0.172, 0.900, -0.454, 02:43:48.352
48, 30244.57, 8173.05, 187500.00, 187500.00, 187500.00, 187500.00, 187500.00, 187500.00, 0.000, 0.000, 0.000, 02:43:48.352
49, 30225.10, 8150.25, 187500.00, 187500.00, 187500.00, 187500.00, 187500.00, 187500.00, 0.000, 0.000, 0.000, 02:43:48.352
50, 30215.40, 8126.71, 187500.00, 187500.00, 187500.00, 187500.00, 187500.00, 187500.00, 0.000, 0.000, 0.000, 02:43:48.352
51, 30229.26, 8162.16, 187500.00, 187500.00, 187500.00, 187500.00, 187500.00, 187500.00, 0.000, 0.000, 0.000, 02:43:48.352
52, 30230.02, 8186.37, 187500.00, 187500.00, 187500.00, 187500.00, 187500.00, 187500.00, 0.000, 0.000, 0.000, 02:43:48.352
53, 30220.81, 8158.74, 187500.00, 187500.00, 187500.00, 187500.00, 187500.00, 187500.00, 0.000, 0.000, 0.000, 02:43:48.353
54, 30211.35, 8136.84, 187500.00, 187500.00, 187500.00, 187500.00, 187500.00, 187500.00, 0.000, 0.000, 0.000, 02:43:48.353
55, 30240.57, 8169.14, 187500.00, 187500.00, 187500.00, 187500.00, 187500.00, 187500.00, 0.000, 0.000, 0.000, 02:43:48.353
56, 30243.94, 8160.38, 187500.00, 187500.00, 187500.00, 187500.00, 187500.00, 187500.00, 0.000, 0.000, 0.000, 02:43:48.353
57, 30229.19, 8146.67, 187500.00, 187500.00, 187500.00, 187500.00, 187500.00, 187500.00, 0.168, 0.898, -0.454, 02:43:48.353
58, 30207.51, 8135.14, 187500.00, 187500.00, 187500.00, 187500.00, 187500.00, 187500.00, 0.000, 0.000, 0.000, 02:43:48.353
59, 30240.43, 8150.16, 187500.00, 187500.00, 187500.00, 187500.00, 187500.00, 187500.00, 0.000, 0.000, 0.000, 02:43:48.353
60, 30247.41, 8170.41, 187500.00, 187500.00, 187500.00, 187500.00, 187500.00, 187500.00, 0.000, 0.000, 0.000, 02:43:48.353
61, 30234.40, 8172.16, 187500.00, 187500.00, 187500.00, 187500.00, 187500.00, 187500.00, 0.000, 0.000, 0.000, 02:43:48.354
62, 30200.38, 8128.41, 187500.00, 187500.00, 187500.00, 187500.00, 187500.00, 187500.00, 0.000, 0.000, 0.000, 02:43:48.354
63, 30218.39, 8124.26, 187500.00, 187500.00, 187500.00, 187500.00, 187500.00, 187500.00, 0.000, 0.000, 0.000, 02:43:48.354
64, 30231.54, 8117.62, 187500.00, 187500.00, 187500.00, 187500.00, 187500.00, 187500.00, 0.000, 0.000, 0.000, 02:43:48.354
65, 30238.91, 8146.90, 187500.00, 187500.00, 187500.00, 187500.00, 187500.00, 187500.00, 0.000, 0.000, 0.000, 02:43:48.354
66, 30225.32, 8149.80, 187500.00, 187500.00, 187500.00, 187500.00, 187500.00, 187500.00, 0.000, 0.000, 0.000, 02:43:48.354
67, 30233.04, 8155.53, 187500.00, 187500.00, 187500.00, 187500.00, 187500.00, 187500.00, 0.166, 0.900, -0.458, 02:43:48.361
68, 30239.25, 8159.30, 187500.00, 187500.00, 187500.00, 187500.00, 187500.00, 187500.00, 0.000, 0.000, 0.000, 02:43:48.362
69, 30236.23, 8153.42, 187500.00, 187500.00, 187500.00, 187500.00, 187500.00, 187500.00, 0.000, 0.000, 0.000, 02:43:48.362
70, 30221.86, 8136.44, 187500.00, 187500.00, 187500.00, 187500.00, 187500.00, 187500.00, 0.000, 0.000, 0.000, 02:43:48.362
71, 30223.13, 8134.74, 187500.00, 187500.00, 187500.00, 187500.00, 187500.00, 187500.00, 0.000, 0.000, 0.000, 02:43:48.362
72, 30240.21, 8151.21, 187500.00, 187500.00, 187500.00, 187500.00, 187500.00, 187500.00, 0.000, 0.000, 0.000, 02:43:48.362
73, 30237.46, 8145.00, 187500.00, 187500.00, 187500.00, 187500.00, 187500.00, 187500.00, 0.000, 0.000, 0.000, 02:43:48.362
74, 30220.96, 8133.78, 187500.00, 187500.00, 187500.00, 187500.00, 187500.00, 187500.00, 0.000, 0.000, 0.000, 02:43:48.362
75, 30219.69, 8123.34, 187500.00, 187500.00, 187500.00, 187500.00, 187500.00, 187500.00, 0.000, 0.000, 0.000, 02:43:48.362
76, 30244.86, 8139.12, 187500.00, 187500.00, 187500.00, 187500.00, 187500.00, 187500.00, 0.172, 0.902, -0.462, 02:43:48.363
77, 30239.63, 8132.17, 187500.00, 187500.00, 187500.00, 187500.00, 187500.00, 187500.00, 0.000, 0.000, 0.000, 02:43:48.363
78, 30206.10, 8105.73, 187500.00, 187500.00, 187500.00, 187500.00, 187500.00, 187500.00, 0.000, 0.000, 0.000, 02:43:48.363
79, 30186.21, 8087.51, 187500.00, 187500.00, 187500.00, 187500.00, 187500.00, 187500.00, 0.000, 0.000, 0.000, 02:43:48.363
80, 30212.47, 8098.82, 187500.00, 187500.00, 187500.00, 187500.00, 187500.00, 187500.00, 0.000, 0.000, 0.000, 02:43:48.363
81, 30217.39, 8120.43, 187500.00, 187500.00, 187500.00, 187500.00, 187500.00, 187500.00, 0.000, 0.000, 0.000, 02:43:48.363
82, 30213.61, 8135.65, 187500.00, 187500.00, 187500.00, 187500.00, 187500.00, 187500.00, 0.000, 0.000, 0.000, 02:43:48.363
83, 30194.90, 8105.97, 187500.00, 187500.00, 187500.00, 187500.00, 187500.00, 187500.00, 0.000, 0.000, 0.000, 02:43:48.363
84, 30222.71, 8111.74, 187500.00, 187500.00, 187500.00, 187500.00, 187500.00, 187500.00, 0.000, 0.000, 0.000, 02:43:48.363
85, 30223.92, 8119.02, 187500.00, 187500.00, 187500.00, 187500.00, 187500.00, 187500.00, 0.000, 0.000, 0.000, 02:43:48.363
86, 30218.06, 8136.62, 187500.00, 187500.00, 187500.00, 187500.00, 187500.00, 187500.00, 0.170, 0.896, -0.466, 02:43:48.364
87, 30203.71, 8113.41, 187500.00, 187500.00, 187500.00, 187500.00, 187500.00, 187500.00, 0.000, 0.000, 0.000, 02:43:48.364
88, 30227.29, 8119.52, 187500.00, 187500.00, 187500.00, 187500.00, 187500.00, 187500.00, 0.000, 0.000, 0.000, 02:43:48.364
89, 30237.75, 8136.88, 187500.00, 187500.00, 187500.00, 187500.00, 187500.00, 187500.00, 0.000, 0.000, 0.000, 02:43:48.364
90, 30230.46, 8130.89, 187500.00, 187500.00, 187500.00, 187500.00, 187500.00, 187500.00, 0.000, 0.000, 0.000, 02:43:48.364
91, 30206.84, 8099.24, 187500.00, 187500.00, 187500.00, 187500.00, 187500.00, 187500.00, 0.000, 0.000, 0.000, 02:43:48.364
92, 30215.87, 8104.76, 187500.00, 187500.00, 187500.00, 187500.00, 187500.00, 187500.00, 0.000, 0.000, 0.000, 02:43:48.364
93, 30237.10, 8131.94, 187500.00, 187500.00, 187500.00, 187500.00, 187500.00, 187500.00, 0.000, 0.000, 0.000, 02:43:48.364
94, 30231.49, 8131.39, 187500.00, 187500.00, 187500.00, 187500.00, 187500.00, 187500.00, 0.000, 0.000, 0.000, 02:43:48.364
95, 30206.82, 8102.35, 187500.00, 187500.00, 187500.00, 187500.00, 187500.00, 187500.00, 0.000, 0.000, 0.000, 02:43:48.364
96, 30218.89, 8090.95, 187500.00, 187500.00, 187500.00, 187500.00, 187500.00, 187500.00, 0.172, 0.898, -0.470, 02:43:48.365
97, 30237.28, 8105.03, 187500.00, 187500.00, 187500.00, 187500.00, 187500.00, 187500.00, 0.000, 0.000, 0.000, 02:43:48.365
98, 30222.96, 8111.25, 187500.00, 187500.00, 187500.00, 187500.00, 187500.00, 187500.00, 0.000, 0.000, 0.000, 02:43:48.365
99, 30218.98, 8107.83, 187500.00, 187500.00, 187500.00, 187500.00, 187500.00, 187500.00, 0.000, 0.000, 0.000, 02:43:48.365
100, 30217.21, 8096.43, 187500.00, 187500.00, 187500.00, 187500.00, 187500.00, 187500.00, 0.000, 0.000, 0.000, 02:43:48.365
101, 30237.97, 8106.98, 187500.00, 187500.00, 187500.00, 187500.00, 187500.00, 187500.00, 0.000, 0.000, 0.000, 02:43:48.365
102, 30229.64, 8083.93, 187500.00, 187500.00, 187500.00, 187500.00, 187500.00, 187500.00, 0.000, 0.000, 0.000, 02:43:48.365
103, 30216.79, 8083.08, 187500.00, 187500.00, 187500.00, 187500.00, 187500.00, 187500.00, 0.000, 0.000, 0.000, 02:43:48.365
104, 30212.09, 8090.01, 187500.00, 187500.00, 187500.00, 187500.00, 187500.00, 187500.00, 0.000, 0.000, 0.000, 02:43:48.365
105, 30233.08, 8123.92, 187500.00, 187500.00, 187500.00, 187500.00, 187500.00, 187500.00, 0.000, 0.000, 0.000, 02:43:48.365
106, 30228.63, 8125.35, 187500.00, 187500.00, 187500.00, 187500.00, 187500.00, 187500.00, 0.172, 0.892, -0.466, 02:43:48.366
107, 30214.73, 8104.14, 187500.00, 187500.00, 187500.00, 187500.00, 187500.00, 187500.00, 0.000, 0.000, 0.000, 02:43:48.366
108, 30202.37, 8078.37, 187500.00, 187500.00, 187500.00, 187500.00, 187500.00, 187500.00, 0.000, 0.000, 0.000, 02:43:48.366
109, 30231.85, 8096.45, 187500.00, 187500.00, 187500.00, 187500.00, 187500.00, 187500.00, 0.000, 0.000, 0.000, 02:43:48.366
110, 30242.45, 8117.95, 187500.00, 187500.00, 187500.00, 187500.00, 187500.00, 187500.00, 0.000, 0.000, 0.000, 02:43:48.366
111, 30233.37, 8102.44, 187500.00, 187500.00, 187500.00, 187500.00, 187500.00, 187500.00, 0.000, 0.000, 0.000, 02:43:48.366
112, 30210.30, 8083.82, 187500.00, 187500.00, 187500.00, 187500.00, 187500.00, 187500.00, 0.000, 0.000, 0.000, 02:43:48.366
113, 30231.63, 8104.88, 187500.00, 187500.00, 187500.00, 187500.00, 187500.00, 187500.00, 0.000, 0.000, 0.000, 02:43:48.366
114, 30239.70, 8110.67, 187500.00, 187500.00, 187500.00, 187500.00, 187500.00, 187500.00, 0.000, 0.000, 0.000, 02:43:48.367
115, 30227.47, 8096.41, 187500.00, 187500.00, 187500.00, 187500.00, 187500.00, 187500.00, 0.000, 0.000, 0.000, 02:43:48.367
116, 30206.73, 8085.48, 187500.00, 187500.00, 187500.00, 187500.00, 187500.00, 187500.00, 0.168, 0.896, -0.468, 02:43:48.367
117, 30214.93, 8088.18, 187500.00, 187500.00, 187500.00, 187500.00, 187500.00, 187500.00, 0.000, 0.000, 0.000, 02:43:48.367
118, 30234.42, 8080.00, 187500.00, 187500.00, 187500.00, 187500.00, 187500.00, 187500.00, 0.000, 0.000, 0.000, 02:43:48.367
119, 30236.63, 8063.64, 187500.00, 187500.00, 187500.00, 187500.00, 187500.00, 187500.00, 0.000, 0.000, 0.000, 02:43:48.367
120, 30215.06, 8102.86, 187500.00, 187500.00, 187500.00, 187500.00, 187500.00, 187500.00, 0.000, 0.000, 0.000, 02:43:48.367
121, 30222.26, 8120.57, 187500.00, 187500.00, 187500.00, 187500.00, 187500.00, 187500.00, 0.000, 0.000, 0.000, 02:43:48.826
122, 30241.48, 8131.34, 187500.00, 187500.00, 187500.00, 187500.00, 187500.00, 187500.00, 0.000, 0.000, 0.000, 02:43:48.826
123, 30235.52, 8113.03, 187500.00, 187500.00, 187500.00, 187500.00, 187500.00, 187500.00, 0.000, 0.000, 0.000, 02:43:48.827
124, 30214.97, 8087.78, 187500.00, 187500.00, 187500.00, 187500.00, 187500.00, 187500.00, 0.000, 0.000, 0.000, 02:43:48.827
125, 30219.98, 8090.06, 187500.00, 187500.00, 187500.00, 187500.00, 187500.00, 187500.00, 0.000, 0.000, 0.000, 02:43:48.827
126, 30244.50, 8118.49, 187500.00, 187500.00, 187500.00, 187500.00, 187500.00, 187500.00, 0.162, 0.894, -0.474, 02:43:48.827
127, 30233.37, 8110.62, 187500.00, 187500.00, 187500.00, 187500.00, 187500.00, 187500.00, 0.000, 0.000, 0.000, 02:43:48.827
128, 30230.49, 8091.42, 187500.00, 187500.00, 187500.00, 187500.00, 187500.00, 187500.00, 0.000, 0.000, 0.000, 02:43:48.827
129, 30217.39, 8067.44, 187500.00, 187500.00, 187500.00, 187500.00, 187500.00, 187500.00, 0.000, 0.000, 0.000, 02:43:48.827
130, 30240.46, 8087.75, 187500.00, 187500.00, 187500.00, 187500.00, 187500.00, 187500.00, 0.000, 0.000, 0.000, 02:43:48.828
131, 30242.96, 8106.22, 187500.00, 187500.00, 187500.00, 187500.00, 187500.00, 187500.00, 0.000, 0.000, 0.000, 02:43:48.828
132, 30230.46, 8117.33, 187500.00, 187500.00, 187500.00, 187500.00, 187500.00, 187500.00, 0.000, 0.000, 0.000, 02:43:48.828
133, 30222.06, 8080.27, 187500.00, 187500.00, 187500.00, 187500.00, 187500.00, 187500.00, 0.000, 0.000, 0.000, 02:43:48.828
134, 30243.16, 8128.17, 187500.00, 187500.00, 187500.00, 187500.00, 187500.00, 187500.00, 0.000, 0.000, 0.000, 02:43:48.828
135, 30249.96, 8156.69, 187500.00, 187500.00, 187500.00, 187500.00, 187500.00, 187500.00, 0.000, 0.000, 0.000, 02:43:48.828
136, 30230.38, 8125.06, 187500.00, 187500.00, 187500.00, 187500.00, 187500.00, 187500.00, 0.160, 0.896, -0.484, 02:43:48.829
137, 30218.91, 8098.75, 187500.00, 187500.00, 187500.00, 187500.00, 187500.00, 187500.00, 0.000, 0.000, 0.000, 02:43:48.829
138, 30242.29, 8116.61, 187500.00, 187500.00, 187500.00, 187500.00, 187500.00, 187500.00, 0.000, 0.000, 0.000, 02:43:48.829
139, 30242.20, 8133.82, 187500.00, 187500.00, 187500.00, 187500.00, 187500.00, 187500.00, 0.000, 0.000, 0.000, 02:43:48.829
140, 30235.16, 8127.36, 187500.00, 187500.00, 187500.00, 187500.00, 187500.00, 187500.00, 0.000, 0.000, 0.000, 02:43:48.829
141, 30215.98, 8106.44, 187500.00, 187500.00, 187500.00, 187500.00, 187500.00, 187500.00, 0.000, 0.000, 0.000, 02:43:48.830
142, 30234.76, 8114.00, 187500.00, 187500.00, 187500.00, 187500.00, 187500.00, 187500.00, 0.000, 0.000, 0.000, 02:43:48.830
143, 30250.11, 8127.83, 187500.00, 187500.00, 187500.00, 187500.00, 187500.00, 187500.00, 0.000, 0.000, 0.000, 02:43:48.830
144, 30248.70, 8123.65, 187500.00, 187500.00, 187500.00, 187500.00, 187500.00, 187500.00, 0.000, 0.000, 0.000, 02:43:48.830
145, 30224.23, 8106.55, 187500.00, 187500.00, 187500.00, 187500.00, 187500.00, 187500.00, 0.156, 0.896, -0.484, 02:43:48.830
146, 30230.93, 8107.76, 187500.00, 187500.00, 187500.00, 187500.00, 187500.00, 187500.00, 0.000, 0.000, 0.000, 02:43:48.830
147, 30248.08, 8120.90, 187500.00, 187500.00, 187500.00, 187500.00, 187500.00, 187500.00, 0.000, 0.000, 0.000, 02:43:48.831
148, 30239.23, 8105.50, 187500.00, 187500.00, 187500.00, 187500.00, 187500.00, 187500.00, 0.000, 0.000, 0.000, 02:43:48.831
149, 30223.65, 8089.16, 187500.00, 187500.00, 187500.00, 187500.00, 187500.00, 187500.00, 0.000, 0.000, 0.000, 02:43:48.831
150, 30221.52, 8105.12, 187500.00, 187500.00, 187500.00, 187500.00, 187500.00, 187500.00, 0.000, 0.000, 0.000, 02:43:48.831
151, 30249.78, 8137.15, 187500.00, 187500.00, 187500.00, 187500.00, 187500.00, 187500.00, 0.000, 0.000, 0.000, 02:43:48.831
152, 30245.57, 8135.23, 187500.00, 187500.00, 187500.00, 187500.00, 187500.00, 187500.00, 0.000, 0.000, 0.000, 02:43:48.831
153, 30231.25, 8118.44, 187500.00, 187500.00, 187500.00, 187500.00, 187500.00, 187500.00, 0.000, 0.000, 0.000, 02:43:48.831
154, 30220.70, 8100.52, 187500.00, 187500.00, 187500.00, 187500.00, 187500.00, 187500.00, 0.000, 0.000, 0.000, 02:43:48.831
155, 30241.39, 8102.73, 187500.00, 187500.00, 187500.00, 187500.00, 187500.00, 187500.00, 0.152, 0.892, -0.488, 02:43:48.832
156, 30244.14, 8092.99, 187500.00, 187500.00, 187500.00, 187500.00, 187500.00, 187500.00, 0.000, 0.000, 0.000, 02:43:48.832
157, 30236.21, 8125.60, 187500.00, 187500.00, 187500.00, 187500.00, 187500.00, 187500.00, 0.000, 0.000, 0.000, 02:43:48.832
158, 30225.46, 8118.44, 187500.00, 187500.00, 187500.00, 187500.00, 187500.00, 187500.00, 0.000, 0.000, 0.000, 02:43:48.832
159, 30248.64, 8135.65, 187500.00, 187500.00, 187500.00, 187500.00, 187500.00, 187500.00, 0.000, 0.000, 0.000, 02:43:48.832
160, 30261.65, 8150.88, 187500.00, 187500.00, 187500.00, 187500.00, 187500.00, 187500.00, 0.000, 0.000, 0.000, 02:43:48.832
161, 30242.98, 8129.93, 187500.00, 187500.00, 187500.00, 187500.00, 187500.00, 187500.00, 0.000, 0.000, 0.000, 02:43:48.832
162, 30231.61, 8130.02, 187500.00, 187500.00, 187500.00, 187500.00, 187500.00, 187500.00, 0.000, 0.000, 0.000, 02:43:48.833
163, 30255.34, 8146.83, 187500.00, 187500.00, 187500.00, 187500.00, 187500.00, 187500.00, 0.000, 0.000, 0.000, 02:43:48.833
164, 30264.87, 8141.91, 187500.00, 187500.00, 187500.00, 187500.00, 187500.00, 187500.00, 0.000, 0.000, 0.000, 02:43:48.833
165, 30268.08, 8148.28, 187500.00, 187500.00, 187500.00, 187500.00, 187500.00, 187500.00, 0.150, 0.890, -0.488, 02:43:48.833
166, 30246.51, 8133.20, 187500.00, 187500.00, 187500.00, 187500.00, 187500.00, 187500.00, 0.000, 0.000, 0.000, 02:43:48.833
167, 30252.84, 8129.80, 187500.00, 187500.00, 187500.00, 187500.00, 187500.00, 187500.00, 0.000, 0.000, 0.000, 02:43:48.833
168, 30263.59, 8149.02, 187500.00, 187500.00, 187500.00, 187500.00, 187500.00, 187500.00, 0.000, 0.000, 0.000, 02:43:48.834
169, 30260.82, 8151.10, 187500.00, 187500.00, 187500.00, 187500.00, 187500.00, 187500.00, 0.000, 0.000, 0.000, 02:43:48.834
170, 30249.51, 8133.53, 187500.00, 187500.00, 187500.00, 187500.00, 187500.00, 187500.00, 0.000, 0.000, 0.000, 02:43:48.834
171, 30253.82, 8119.92, 187500.00, 187500.00, 187500.00, 187500.00, 187500.00, 187500.00, 0.000, 0.000, 0.000, 02:43:48.834
172, 30276.60, 8135.34, 187500.00, 187500.00, 187500.00, 187500.00, 187500.00, 187500.00, 0.000, 0.000, 0.000, 02:43:48.834
173, 30268.80, 8137.20, 187500.00, 187500.00, 187500.00, 187500.00, 187500.00, 187500.00, 0.000, 0.000, 0.000, 02:43:48.834
174, 30248.46, 8136.33, 187500.00, 187500.00, 187500.00, 187500.00, 187500.00, 187500.00, 0.000, 0.000, 0.000, 02:43:48.834
175, 30236.30, 8123.41, 187500.00, 187500.00, 187500.00, 187500.00, 187500.00, 187500.00, 0.154, 0.886, -0.490, 02:43:48.834
176, 30265.02, 8148.62, 187500.00, 187500.00, 187500.00, 187500.00, 187500.00, 187500.00, 0.000, 0.000, 0.000, 02:43:48.835
177, 30271.03, 8156.51, 187500.00, 187500.00, 187500.00, 187500.00, 187500.00, 187500.00, 0.000, 0.000, 0.000, 02:43:48.835
178, 30258.88, 8133.80, 187500.00, 187500.00, 187500.00, 187500.00, 187500.00, 187500.00, 0.000, 0.000, 0.000, 02:43:48.835
179, 30241.53, 8112.59, 187500.00, 187500.00, 187500.00, 187500.00, 187500.00, 187500.00, 0.000, 0.000, 0.000, 02:43:48.835
180, 30273.60, 8134.00, 187500.00, 187500.00, 187500.00, 187500.00, 187500.00, 187500.00, 0.000, 0.000, 0.000, 02:43:48.835
181, 30273.38, 8131.36, 187500.00, 187500.00, 187500.00, 187500.00, 187500.00, 187500.00, 0.000, 0.000, 0.000, 02:43:48.835
182, 30257.73, 8135.43, 187500.00, 187500.00, 187500.00, 187500.00, 187500.00, 187500.00, 0.000, 0.000, 0.000, 02:43:48.835
183, 30237.77, 8112.99, 187500.00, 187500.00, 187500.00, 187500.00, 187500.00, 187500.00, 0.000, 0.000, 0.000, 02:43:48.835
184, 30260.53, 8107.49, 187500.00, 187500.00, 187500.00, 187500.00, 187500.00, 187500.00, 0.000, 0.000, 0.000, 02:43:48.836
185, 30269.40, 8127.74, 187500.00, 187500.00, 187500.00, 187500.00, 187500.00, 187500.00, 0.150, 0.884, -0.486, 02:43:48.836
186, 30253.69, 8140.46, 187500.00, 187500.00, 187500.00, 187500.00, 187500.00, 187500.00, 0.000, 0.000, 0.000, 02:43:48.836
187, 30228.52, 8116.95, 187500.00, 187500.00, 187500.00, 187500.00, 187500.00, 187500.00, 0.000, 0.000, 0.000, 02:43:48.836
188, 30247.03, 8124.57, 187500.00, 187500.00, 187500.00, 187500.00, 187500.00, 187500.00, 0.000, 0.000, 0.000, 02:43:48.836
189, 30261.09, 8129.24, 187500.00, 187500.00, 187500.00, 187500.00, 187500.00, 187500.00, 0.000, 0.000, 0.000, 02:43:48.836
190, 30259.28, 8119.14, 187500.00, 187500.00, 187500.00, 187500.00, 187500.00, 187500.00, 0.000, 0.000, 0.000, 02:43:48.836
191, 30231.07, 8101.46, 187500.00, 187500.00, 187500.00, 187500.00, 187500.00, 187500.00, 0.000, 0.000, 0.000, 02:43:48.836
192, 30236.95, 8103.62, 187500.00, 187500.00, 187500.00, 187500.00, 187500.00, 187500.00, 0.000, 0.000, 0.000, 02:43:48.836
193, 30260.66, 8121.15, 187500.00, 187500.00, 187500.00, 187500.00, 187500.00, 187500.00, 0.000, 0.000, 0.000, 02:43:48.836
194, 30260.08, 8126.78, 187500.00, 187500.00, 187500.00, 187500.00, 187500.00, 187500.00, 0.000, 0.000, 0.000, 02:43:48.837
195, 30235.61, 8097.03, 187500.00, 187500.00, 187500.00, 187500.00, 187500.00, 187500.00, 0.150, 0.882, -0.486, 02:43:48.837
196, 30239.47, 8100.79, 187500.00, 187500.00, 187500.00, 187500.00, 187500.00, 187500.00, 0.000, 0.000, 0.000, 02:43:48.837
197, 30264.84, 8122.98, 187500.00, 187500.00, 187500.00, 187500.00, 187500.00, 187500.00, 0.000, 0.000, 0.000, 02:43:48.837
198, 30262.63, 8109.68, 187500.00, 187500.00, 187500.00, 187500.00, 187500.00, 187500.00, 0.000, 0.000, 0.000, 02:43:48.837
199, 30244.61, 8087.89, 187500.00, 187500.00, 187500.00, 187500.00, 187500.00, 187500.00, 0.000, 0.000, 0.000, 02:43:48.837
200, 30227.34, 8091.02, 187500.00, 187500.00, 187500.00, 187500.00, 187500.00, 187500.00, 0.000, 0.000, 0.000, 02:43:48.837
201, 30247.47, 8107.00, 187500.00, 187500.00, 187500.00, 187500.00, 187500.00, 187500.00, 0.000, 0.000, 0.000, 02:43:48.838
202, 30247.56, 8122.94, 187500.00, 187500.00, 187500.00, 187500.00, 187500.00, 187500.00, 0.000, 0.000, 0.000, 02:43:48.838
203, 30244.21, 8125.22, 187500.00, 187500.00, 187500.00, 187500.00, 187500.00, 187500.00, 0.000, 0.000, 0.000, 02:43:48.838
204, 30238.96, 8107.13, 187500.00, 187500.00, 187500.00, 187500.00, 187500.00, 187500.00, 0.148, 0.882, -0.492, 02:43:48.838
205, 30261.29, 8120.92, 187500.00, 187500.00, 187500.00, 187500.00, 187500.00, 187500.00, 0.000, 0.000, 0.000, 02:43:48.838
206, 30257.35, 8120.12, 187500.00, 187500.00, 187500.00, 187500.00, 187500.00, 187500.00, 0.000, 0.000, 0.000, 02:43:48.838
207, 30253.51, 8110.24, 187500.00, 187500.00, 187500.00, 187500.00, 187500.00, 187500.00, 0.000, 0.000, 0.000, 02:43:48.838
208, 30236.97, 8091.13, 187500.00, 187500.00, 187500.00, 187500.00, 187500.00, 187500.00, 0.000, 0.000, 0.000, 02:43:48.838
209, 30254.94, 8107.31, 187500.00, 187500.00, 187500.00, 187500.00, 187500.00, 187500.00, 0.000, 0.000, 0.000, 02:43:48.838
210, 30266.68, 8113.84, 187500.00, 187500.00, 187500.00, 187500.00, 187500.00, 187500.00, 0.000, 0.000, 0.000, 02:43:48.838
211, 30256.17, 8111.29, 187500.00, 187500.00, 187500.00, 187500.00, 187500.00, 187500.00, 0.000, 0.000, 0.000, 02:43:48.839
212, 30239.34, 8105.14, 187500.00, 187500.00, 187500.00, 187500.00, 187500.00, 187500.00, 0.000, 0.000, 0.000, 02:43:48.839
213, 30249.87, 8101.64, 187500.00, 187500.00, 187500.00, 187500.00, 187500.00, 187500.00, 0.000, 0.000, 0.000, 02:43:48.839
214, 30282.90, 8132.82, 187500.00, 187500.00, 187500.00, 187500.00, 187500.00, 187500.00, 0.150, 0.886, -0.494, 02:43:48.839
215, 30282.79, 8145.40, 187500.00, 187500.00, 187500.00, 187500.00, 187500.00, 187500.00, 0.000, 0.000, 0.000, 02:43:48.839
216, 30261.15, 8124.72, 187500.00, 187500.00, 187500.00, 187500.00, 187500.00, 187500.00, 0.000, 0.000, 0.000, 02:43:48.839
217, 30267.52, 8128.08, 187500.00, 187500.00, 187500.00, 187500.00, 187500.00, 187500.00, 0.000, 0.000, 0.000, 02:43:48.839
218, 30289.59, 8133.38, 187500.00, 187500.00, 187500.00, 187500.00, 187500.00, 187500.00, 0.000, 0.000, 0.000, 02:43:48.839
219, 30283.42, 8137.38, 187500.00, 187500.00, 187500.00, 187500.00, 187500.00, 187500.00, 0.000, 0.000, 0.000, 02:43:48.840
220, 30260.97, 8120.68, 187500.00, 187500.00, 187500.00, 187500.00, 187500.00, 187500.00, 0.000, 0.000, 0.000, 02:43:48.840
221, 30258.88, 8099.49, 187500.00, 187500.00, 187500.00, 187500.00, 187500.00, 187500.00, 0.000, 0.000, 0.000, 02:43:48.840
222, 30283.01, 8126.98, 187500.00, 187500.00, 187500.00, 187500.00, 187500.00, 187500.00, 0.000, 0.000, 0.000, 02:43:48.840
223, 30280.55, 8131.39, 187500.00, 187500.00, 187500.00, 187500.00, 187500.00, 187500.00, 0.000, 0.000, 0.000, 02:43:48.840
224, 30269.40, 8128.50, 187500.00, 187500.00, 187500.00, 187500.00, 187500.00, 187500.00, 0.146, 0.888, -0.492, 02:43:48.840
225, 30269.42, 8121.37, 187500.00, 187500.00, 187500.00, 187500.00, 187500.00, 187500.00, 0.000, 0.000, 0.000, 02:43:48.840
226, 30300.05, 8152.19, 187500.00, 187500.00, 187500.00, 187500.00, 187500.00, 187500.00, 0.000, 0.000, 0.000, 02:43:48.840
227, 30296.18, 8146.50, 187500.00, 187500.00, 187500.00, 187500.00, 187500.00, 187500.00, 0.000, 0.000, 0.000, 02:43:48.840
228, 30269.71, 8104.16, 187500.00, 187500.00, 187500.00, 187500.00, 187500.00, 187500.00, 0.000, 0.000, 0.000, 02:43:48.841
229, 30250.04, 8085.36, 187500.00, 187500.00, 187500.00, 187500.00, 187500.00, 187500.00, 0.000, 0.000, 0.000, 02:43:48.841
230, 30275.21, 8117.33, 187500.00, 187500.00, 187500.00, 187500.00, 187500.00, 187500.00, 0.000, 0.000, 0.000, 02:43:48.841
231, 30286.03, 8138.67, 187500.00, 187500.00, 187500.00, 187500.00, 187500.00, 187500.00, 0.000, 0.000, 0.000, 02:43:48.841
232, 30278.52, 8143.72, 187500.00, 187500.00, 187500.00, 187500.00, 187500.00, 187500.00, 0.000, 0.000, 0.000, 02:43:48.841
233, 30253.09, 8106.84, 187500.00, 187500.00, 187500.00, 187500.00, 187500.00, 187500.00, 0.000, 0.000, 0.000, 02:43:48.841
234, 30268.17, 8102.91, 187500.00, 187500.00, 187500.00, 187500.00, 187500.00, 187500.00, 0.144, 0.886, -0.488, 02:43:48.842
235, 30268.06, 8110.96, 187500.00, 187500.00, 187500.00, 187500.00, 187500.00, 187500.00, 0.000, 0.000, 0.000, 02:43:48.842
236, 30271.77, 8122.80, 187500.00, 187500.00, 187500.00, 187500.00, 187500.00, 187500.00, 0.000, 0.000, 0.000, 02:43:48.842
237, 30250.25, 8085.27, 187500.00, 187500.00, 187500.00, 187500.00, 187500.00, 187500.00, 0.000, 0.000, 0.000, 02:43:48.842
238, 30262.12, 8096.94, 187500.00, 187500.00, 187500.00, 187500.00, 187500.00, 187500.00, 0.000, 0.000, 0.000, 02:43:48.842
239, 30284.24, 8138.72, 187500.00, 187500.00, 187500.00, 187500.00, 187500.00, 187500.00, 0.000, 0.000, 0.000, 02:43:48.842
240, 30270.56, 8128.17, 187500.00, 187500.00, 187500.00, 187500.00, 187500.00, 187500.00, 0.000, 0.000, 0.000, 02:43:48.842
241, 30242.94, 8110.89, 187500.00, 187500.00, 187500.00, 187500.00, 187500.00, 187500.00, 0.000, 0.000, 0.000, 02:43:49.306
242, 30252.35, 8107.67, 187500.00, 187500.00, 187500.00, 187500.00, 187500.00, 187500.00, 0.000, 0.000, 0.000, 02:43:49.306
243, 30268.69, 8116.39, 187500.00, 187500.00, 187500.00, 187500.00, 187500.00, 187500.00, 0.000, 0.000, 0.000, 02:43:49.307
244, 30260.89, 8102.31, 187500.00, 187500.00, 187500.00, 187500.00, 187500.00, 187500.00, 0.144, 0.886, -0.488, 02:43:49.307
245, 30244.86, 8085.32, 187500.00, 187500.00, 187500.00, 187500.00, 187500.00, 187500.00, 0.000, 0.000, 0.000, 02:43:49.307
246, 30235.90, 8075.71, 187500.00, 187500.00, 187500.00, 187500.00, 187500.00, 187500.00, 0.000, 0.000, 0.000, 02:43:49.307
247, 30266.70, 8108.39, 187500.00, 187500.00, 187500.00, 187500.00, 187500.00, 187500.00, 0.000, 0.000, 0.000, 02:43:49.307
248, 30266.27, 8088.13, 187500.00, 187500.00, 187500.00, 187500.00, 187500.00, 187500.00, 0.000, 0.000, 0.000, 02:43:49.307
249, 30245.55, 8060.06, 187500.00, 187500.00, 187500.00, 187500.00, 187500.00, 187500.00, 0.000, 0.000, 0.000, 02:43:49.307
250, 30239.07, 8064.58, 187500.00, 187500.00, 187500.00, 187500.00, 187500.00, 187500.00, 0.000, 0.000, 0.000, 02:43:49.307
251, 30263.66, 8102.64, 187500.00, 187500.00, 187500.00, 187500.00, 187500.00, 187500.00, 0.000, 0.000, 0.000, 02:43:49.307
252, 30263.90, 8122.27, 187500.00, 187500.00, 187500.00, 187500.00, 187500.00, 187500.00, 0.000, 0.000, 0.000, 02:43:49.308
253, 30238.62, 8087.42, 187500.00, 187500.00, 187500.00, 187500.00, 187500.00, 187500.00, 0.000, 0.000, 0.000, 02:43:49.308
254, 30213.25, 8052.33, 187500.00, 187500.00, 187500.00, 187500.00, 187500.00, 187500.00, 0.146, 0.892, -0.486, 02:43:49.308
255, 30240.14, 8076.87, 187500.00, 187500.00, 187500.00, 187500.00, 187500.00, 187500.00, 0.000, 0.000, 0.000, 02:43:49.308
0, 30246.83, 8090.77, 187500.00, 187500.00, 187500.00, 187500.00, 187500.00, 187500.00, 0.000, 0.000, 0.000, 02:43:49.308
1, 30246.60, 8081.41, 187500.00, 187500.00, 187500.00, 187500.00, 187500.00, 187500.00, 0.000, 0.000, 0.000, 02:43:49.308
2, 30222.13, 8061.63, 187500.00, 187500.00, 187500.00, 187500.00, 187500.00, 187500.00, 0.000, 0.000, 0.000, 02:43:49.308
3, 30247.41, 8091.96, 187500.00, 187500.00, 187500.00, 187500.00, 187500.00, 187500.00, 0.000, 0.000, 0.000, 02:43:49.309
4, 30253.22, 8092.96, 187500.00, 187500.00, 187500.00, 187500.00, 187500.00, 187500.00, 0.000, 0.000, 0.000, 02:43:49.309
5, 30254.07, 8077.32, 187500.00, 187500.00, 187500.00, 187500.00, 187500.00, 187500.00, 0.000, 0.000, 0.000, 02:43:49.309
6, 30228.32, 8060.35, 187500.00, 187500.00, 187500.00, 187500.00, 187500.00, 187500.00, 0.000, 0.000, 0.000, 02:43:49.309
7, 30231.49, 8064.49, 187500.00, 187500.00, 187500.00, 187500.00, 187500.00, 187500.00, 0.000, 0.000, 0.000, 02:43:49.309
8, 30243.59, 8087.60, 187500.00, 187500.00, 187500.00, 187500.00, 187500.00, 187500.00, 0.152, 0.888, -0.482, 02:43:49.310
9, 30245.04, 8096.43, 187500.00, 187500.00, 187500.00, 187500.00, 187500.00, 187500.00, 0.000, 0.000, 0.000, 02:43:49.310
10, 30227.98, 8081.85, 187500.00, 187500.00, 187500.00, 187500.00, 187500.00, 187500.00, 0.000, 0.000, 0.000, 02:43:49.310
11, 30216.41, 8074.37, 187500.00, 187500.00, 187500.00, 187500.00, 187500.00, 187500.00, 0.000, 0.000, 0.000, 02:43:49.310
12, 30241.22, 8091.78, 187500.00, 187500.00, 187500.00, 187500.00, 187500.00, 187500.00, 0.000, 0.000, 0.000, 02:43:49.310
13, 30244.50, 8083.42, 187500.00, 187500.00, 187500.00, 187500.00, 187500.00, 187500.00, 0.000, 0.000, 0.000, 02:43:49.310
14, 30225.68, 8051.52, 187500.00, 187500.00, 187500.00, 187500.00, 187500.00, 187500.00, 0.000, 0.000, 0.000, 02:43:49.310
15, 30216.65, 8051.39, 187500.00, 187500.00, 187500.00, 187500.00, 187500.00, 187500.00, 0.000, 0.000, 0.000, 02:43:49.311
16, 30252.82, 8089.41, 187500.00, 187500.00, 187500.00, 187500.00, 187500.00, 187500.00, 0.000, 0.000, 0.000, 02:43:49.311
17, 30254.27, 8081.59, 187500.00, 187500.00, 187500.00, 187500.00, 187500.00, 187500.00, 0.146, 0.890, -0.484, 02:43:49.311
18, 30227.94, 8050.18, 187500.00, 187500.00, 187500.00, 187500.00, 187500.00, 187500.00, 0.000, 0.000, 0.000, 02:43:49.311
19, 30214.30, 8059.10, 187500.00, 187500.00, 187500.00, 187500.00, 187500.00, 187500.00, 0.000, 0.000, 0.000, 02:43:49.311
20, 30250.43, 8093.41, 187500.00, 187500.00, 187500.00, 187500.00, 187500.00, 187500.00, 0.000, 0.000, 0.000, 02:43:49.311
21, 30261.40, 8101.50, 187500.00, 187500.00, 187500.00, 187500.00, 187500.00, 187500.00, 0.000, 0.000, 0.000, 02:43:49.311
22, 30247.81, 8089.34, 187500.00, 187500.00, 187500.00, 187500.00, 187500.00, 187500.00, 0.000, 0.000, 0.000, 02:43:49.311
23, 30213.03, 8053.78, 187500.00, 187500.00, 187500.00, 187500.00, 187500.00, 187500.00, 0.000, 0.000, 0.000, 02:43:49.311
24, 30241.35, 8074.97, 187500.00, 187500.00, 187500.00, 187500.00, 187500.00, 187500.00, 0.000, 0.000, 0.000, 02:43:49.311
25, 30255.70, 8073.32, 187500.00, 187500.00, 187500.00, 187500.00, 187500.00, 187500.00, 0.000, 0.000, 0.000, 02:43:49.312
26, 30242.78, 8066.88, 187500.00, 187500.00, 187500.00, 187500.00, 187500.00, 187500.00, 0.000, 0.000, 0.000, 02:43:49.312
27, 30223.71, 8059.28, 187500.00, 187500.00, 187500.00, 187500.00, 187500.00, 187500.00, 0.156, 0.892, -0.480, 02:43:49.312
28, 30238.58, 8072.02, 187500.00, 187500.00, 187500.00, 187500.00, 187500.00, 187500.00, 0.000, 0.000, 0.000, 02:43:49.312
29, 30258.20, 8089.39, 187500.00, 187500.00, 187500.00, 187500.00, 187500.00, 187500.00, 0.000, 0.000, 0.000, 02:43:49.312
30, 30247.74, 8076.71, 187500.00, 187500.00, 187500.00, 187500.00, 187500.00, 187500.00, 0.000, 0.000, 0.000, 02:43:49.312
31, 30235.61, 8057.42, 187500.00, 187500.00, 187500.00, 187500.00, 187500.00, 187500.00, 0.000, 0.000, 0.000, 02:43:49.312
32, 30249.87, 8065.34, 187500.00, 187500.00, 187500.00, 187500.00, 187500.00, 187500.00, 0.000, 0.000, 0.000, 02:43:49.312
33, 30271.88, 8081.07, 187500.00, 187500.00, 187500.00, 187500.00, 187500.00, 187500.00, 0.000, 0.000, 0.000, 02:43:49.312
34, 30262.36, 8088.51, 187500.00, 187500.00, 187500.00, 187500.00, 187500.00, 187500.00, 0.000, 0.000, 0.000, 02:43:49.312
35, 30247.92, 8083.71, 187500.00, 187500.00, 187500.00, 187500.00, 187500.00, 187500.00, 0.000, 0.000, 0.000, 02:43:49.313
36, 30247.36, 8083.13, 187500.00, 187500.00, 187500.00, 187500.00, 187500.00, 187500.00, 0.000, 0.000, 0.000, 02:43:49.313
37, 30265.71, 8088.58, 187500.00, 187500.00, 187500.00, 187500.00, 187500.00, 187500.00, 0.156, 0.892, -0.486, 02:43:49.313
38, 30253.49, 8056.04, 187500.00, 187500.00, 187500.00, 187500.00, 187500.00, 187500.00, 0.000, 0.000, 0.000, 02:43:49.313
39, 30235.94, 8051.68, 187500.00, 187500.00, 187500.00, 187500.00, 187500.00, 187500.00, 0.000, 0.000, 0.000, 02:43:49.313
40, 30227.67, 8047.50, 187500.00, 187500.00, 187500.00, 187500.00, 187500.00, 187500.00, 0.000, 0.000, 0.000, 02:43:49.313
41, 30257.31, 8083.02, 187500.00, 187500.00, 187500.00, 187500.00, 187500.00, 187500.00, 0.000, 0.000, 0.000, 02:43:49.314
42, 30257.35, 8093.81, 187500.00, 187500.00, 187500.00, 187500.00, 187500.00, 187500.00, 0.000, 0.000, 0.000, 02:43:49.314
43, 30237.39, 8080.13, 187500.00, 187500.00, 187500.00, 187500.00, 187500.00, 187500.00, 0.000, 0.000, 0.000, 02:43:49.314
44, 30227.16, 8060.55, 187500.00, 187500.00, 187500.00, 187500.00, 187500.00, 187500.00, 0.000, 0.000, 0.000, 02:43:49.314
45, 30256.86, 8075.91, 187500.00, 187500.00, 187500.00, 187500.00, 187500.00, 187500.00, 0.000, 0.000, 0.000, 02:43:49.314
46, 30247.10, 8063.35, 187500.00, 187500.00, 187500.00, 187500.00, 187500.00, 187500.00, 0.000, 0.000, 0.000, 02:43:49.314
47, 30238.85, 8068.15, 187500.00, 187500.00, 187500.00, 187500.00, 187500.00, 187500.00, 0.150, 0.890, -0.484, 02:43:49.314
48, 30223.83, 8052.75, 187500.00, 187500.00, 187500.00, 187500.00, 187500.00, 187500.00, 0.000, 0.000, 0.000, 02:43:49.314
49, 30250.27, 8077.38, 187500.00, 187500.00, 187500.00, 187500.00, 187500.00, 187500.00, 0.000, 0.000, 0.000, 02:43:49.315
50, 30257.44, 8087.78, 187500.00, 187500.00, 187500.00, 187500.00, 187500.00, 187500.00, 0.000, 0.000, 0.000, 02:43:49.315
51, 30231.83, 8061.94, 187500.00, 187500.00, 187500.00, 187500.00, 187500.00, 187500.00, 0.000, 0.000, 0.000, 02:43:49.315
52, 30205.59, 8034.87, 187500.00, 187500.00, 187500.00, 187500.00, 187500.00, 187500.00, 0.000, 0.000, 0.000, 02:43:49.315
53, 30217.61, 8036.41, 187500.00, 187500.00, 187500.00, 187500.00, 187500.00, 187500.00, 0.000, 0.000, 0.000, 02:43:49.315
54, 30235.38, 8048.42, 187500.00, 187500.00, 187500.00, 187500.00, 187500.00, 187500.00, 0.000, 0.000, 0.000, 02:43:49.315
55, 30231.58, 8038.76, 187500.00, 187500.00, 187500.00, 187500.00, 187500.00, 187500.00, 0.000, 0.000, 0.000, 02:43:49.315
56, 30210.04, 8028.93, 187500.00, 187500.00, 187500.00, 187500.00, 187500.00, 187500.00, 0.000, 0.000, 0.000, 02:43:49.315
57, 30228.48, 8050.76, 187500.00, 187500.00, 187500.00, 187500.00, 187500.00, 187500.00, 0.152, 0.890, -0.476, 02:43:49.315
58, 30248.70, 8059.99, 187500.00, 187500.00, 187500.00, 187500.00, 187500.00, 187500.00, 0.000, 0.000, 0.000, 02:43:49.315
59, 30221.55, 8030.83, 187500.00, 187500.00, 187500.00, 187500.00, 187500.00, 187500.00, 0.000, 0.000, 0.000, 02:43:49.316
60, 30197.05, 8032.64, 187500.00, 187500.00, 187500.00, 187500.00, 187500.00, 187500.00, 0.000, 0.000, 0.000, 02:43:49.316
61, 30212.14, 8027.20, 187500.00, 187500.00, 187500.00, 187500.00, 187500.00, 187500.00, 0.000, 0.000, 0.000, 02:43:49.316
62, 30245.26, 8041.51, 187500.00, 187500.00, 187500.00, 187500.00, 187500.00, 187500.00, 0.000, 0.000, 0.000, 02:43:49.316
63, 30235.52, 8048.08, 187500.00, 187500.00, 187500.00, 187500.00, 187500.00, 187500.00, 0.000, 0.000, 0.000, 02:43:49.316
64, 30225.17, 8071.26, 187500.00, 187500.00, 187500.00, 187500.00, 187500.00, 187500.00, 0.000, 0.000, 0.000, 02:43:49.316
65, 30219.65, 8056.80, 187500.00, 187500.00, 187500.00, 187500.00, 187500.00, 187500.00, 0.000, 0.000, 0.000, 02:43:49.316
66, 30241.82, 8076.27, 187500.00, 187500.00, 187500.00, 187500.00, 187500.00, 187500.00, 0.000, 0.000, 0.000, 02:43:49.316
67, 30244.32, 8070.01, 187500.00, 187500.00, 187500.00, 187500.00, 187500.00, 187500.00, 0.154, 0.892, -0.474, 02:43:49.316
68, 30230.55, 8056.08, 187500.00, 187500.00, 187500.00, 187500.00, 187500.00, 187500.00, 0.000, 0.000, 0.000, 02:43:49.316
69, 30211.64, 8037.15, 187500.00, 187500.00, 187500.00, 187500.00, 187500.00, 187500.00, 0.000, 0.000, 0.000, 02:43:49.316
70, 30231.27, 8046.47, 187500.00, 187500.00, 187500.00, 187500.00, 187500.00, 187500.00, 0.000, 0.000, 0.000, 02:43:49.317
71, 30239.45, 8050.94, 187500.00, 187500.00, 187500.00, 187500.00, 187500.00, 187500.00, 0.000, 0.000, 0.000, 02:43:49.317
72, 30230.64, 8046.99, 187500.00, 187500.00, 187500.00, 187500.00, 187500.00, 187500.00, 0.000, 0.000, 0.000, 02:43:49.317
73, 30208.07, 8018.15, 187500.00, 187500.00, 187500.00, 187500.00, 187500.00, 187500.00, 0.000, 0.000, 0.000, 02:43:49.317
74, 30235.14, 8046.61, 187500.00, 187500.00, 187500.00, 187500.00, 187500.00, 187500.00, 0.000, 0.000, 0.000, 02:43:49.317
75, 30238.69, 8051.90, 187500.00, 187500.00, 187500.00, 187500.00, 187500.00, 187500.00, 0.000, 0.000, 0.000, 02:43:49.317
76, 30223.85, 8034.24, 187500.00, 187500.00, 187500.00, 187500.00, 187500.00, 187500.00, 0.152, 0.890, -0.472, 02:43:49.317
77, 30211.89, 8034.74, 187500.00, 187500.00, 187500.00, 187500.00, 187500.00, 187500.00, 0.000, 0.000, 0.000, 02:43:49.317
78, 30232.32, 8039.39, 187500.00, 187500.00, 187500.00, 187500.00, 187500.00, 187500.00, 0.000, 0.000, 0.000, 02:43:49.317
79, 30238.60, 8036.99, 187500.00, 187500.00, 187500.00, 187500.00, 187500.00, 187500.00, 0.000, 0.000, 0.000, 02:43:49.317
80, 30229.44, 8022.87, 187500.00, 187500.00, 187500.00, 187500.00, 187500.00, 187500.00, 0.000, 0.000, 0.000, 02:43:49.318
81, 30215.15, 8024.52, 187500.00, 187500.00, 187500.00, 187500.00, 187500.00, 187500.00, 0.000, 0.000, 0.000, 02:43:49.318
82, 30226.69, 8056.78, 187500.00, 187500.00, 187500.00, 187500.00, 187500.00, 187500.00, 0.000, 0.000, 0.000, 02:43:49.318
83, 30241.75, 8072.24, 187500.00, 187500.00, 187500.00, 187500.00, 187500.00, 187500.00, 0.000, 0.000, 0.000, 02:43:49.318
84, 30230.78, 8059.57, 187500.00, 187500.00, 187500.00, 187500.00, 187500.00, 187500.00, 0.000, 0.000, 0.000, 02:43:49.318
85, 30219.47, 8029.86, 187500.00, 187500.00, 187500.00, 187500.00, 187500.00, 187500.00, 0.000, 0.000, 0.000, 02:43:49.318
86, 30220.88, 8029.35, 187500.00, 187500.00, 187500.00, 187500.00, 187500.00, 187500.00, 0.156, 0.894, -0.480, 02:43:49.318
87, 30243.54, 8059.61, 187500.00, 187500.00, 187500.00, 187500.00, 187500.00, 187500.00, 0.000, 0.000, 0.000, 02:43:49.318
88, 30241.39, 8057.60, 187500.00, 187500.00, 187500.00, 187500.00, 187500.00, 187500.00, 0.000, 0.000, 0.000, 02:43:49.318
89, 30230.31, 8040.93, 187500.00, 187500.00, 187500.00, 187500.00, 187500.00, 187500.00, 0.000, 0.000, 0.000, 02:43:49.318
90, 30215.62, 8019.98, 187500.00, 187500.00, 187500.00, 187500.00, 187500.00, 187500.00, 0.000, 0.000, 0.000, 02:43:49.319
91, 30241.87, 8039.16, 187500.00, 187500.00, 187500.00, 187500.00, 187500.00, 187500.00, 0.000, 0.000, 0.000, 02:43:49.319
92, 30242.83, 8042.43, 187500.00, 187500.00, 187500.00, 187500.00, 187500.00, 187500.00, 0.000, 0.000, 0.000, 02:43:49.319
93, 30231.09, 8039.16, 187500.00, 187500.00, 187500.00, 187500.00, 187500.00, 187500.00, 0.000, 0.000, 0.000, 02:43:49.319
94, 30216.05, 8021.91, 187500.00, 187500.00, 187500.00, 187500.00, 187500.00, 187500.00, 0.000, 0.000, 0.000, 02:43:49.319
95, 30233.10, 8034.98, 187500.00, 187500.00, 187500.00, 187500.00, 187500.00, 187500.00, 0.000, 0.000, 0.000, 02:43:49.319
96, 30239.34, 8029.44, 187500.00, 187500.00, 187500.00, 187500.00, 187500.00, 187500.00, 0.152, 0.896, -0.478, 02:43:49.319
97, 30239.81, 8014.55, 187500.00, 187500.00, 187500.00, 187500.00, 187500.00, 187500.00, 0.000, 0.000, 0.000, 02:43:49.319
98, 30213.70, 8006.86, 187500.00, 187500.00, 187500.00, 187500.00, 187500.00, 187500.00, 0.000, 0.000, 0.000, 02:43:49.319
99, 30231.98, 8033.84, 187500.00, 187500.00, 187500.00, 187500.00, 187500.00, 187500.00, 0.000, 0.000, 0.000, 02:43:49.319
100, 30245.96, 8050.96, 187500.00, 187500.00, 187500.00, 187500.00, 187500.00, 187500.00, 0.000, 0.000, 0.000, 02:43:49.319
101, 30241.26, 8061.67, 187500.00, 187500.00, 187500.00, 187500.00, 187500.00, 187500.00, 0.000, 0.000, 0.000, 02:43:49.320
102, 30227.94, 8040.95, 187500.00, 187500.00, 187500.00, 187500.00, 187500.00, 187500.00, 0.000, 0.000, 0.000, 02:43:49.320
103, 30243.36, 8055.52, 187500.00, 187500.00, 187500.00, 187500.00, 187500.00, 187500.00, 0.000, 0.000, 0.000, 02:43:49.320
104, 30257.73, 8066.14, 187500.00, 187500.00, 187500.00, 187500.00, 187500.00, 187500.00, 0.000, 0.000, 0.000, 02:43:49.320
105, 30249.02, 8066.03, 187500.00, 187500.00, 187500.00, 187500.00, 187500.00, 187500.00, 0.000, 0.000, 0.000, 02:43:49.786
106, 30223.98, 8042.81, 187500.00, 187500.00, 187500.00, 187500.00, 187500.00, 187500.00, 0.150, 0.892, -0.474, 02:43:49.786
107, 30234.94, 8049.51, 187500.00, 187500.00, 187500.00, 187500.00, 187500.00, 187500.00, 0.000, 0.000, 0.000, 02:43:49.786
108, 30250.98, 8076.36, 187500.00, 187500.00, 187500.00, 187500.00, 187500.00, 187500.00, 0.000, 0.000, 0.000, 02:43:49.786
109, 30243.65, 8076.76, 187500.00, 187500.00, 187500.00, 187500.00, 187500.00, 187500.00, 0.000, 0.000, 0.000, 02:43:49.786
110, 30226.69, 8060.20, 187500.00, 187500.00, 187500.00, 187500.00, 187500.00, 187500.00, 0.000, 0.000, 0.000, 02:43:49.786
111, 30230.80, 8055.75, 187500.00, 187500.00, 187500.00, 187500.00, 187500.00, 187500.00, 0.000, 0.000, 0.000, 02:43:49.786
112, 30252.75, 8063.12, 187500.00, 187500.00, 187500.00, 187500.00, 187500.00, 187500.00, 0.000, 0.000, 0.000, 02:43:49.786
113, 30252.50, 8078.12, 187500.00, 187500.00, 187500.00, 187500.00, 187500.00, 187500.00, 0.000, 0.000, 0.000, 02:43:49.787
114, 30238.02, 8078.64, 187500.00, 187500.00, 187500.00, 187500.00, 187500.00, 187500.00, 0.000, 0.000, 0.000, 02:43:49.787
115, 30229.91, 8066.95, 187500.00, 187500.00, 187500.00, 187500.00, 187500.00, 187500.00, 0.000, 0.000, 0.000, 02:43:49.787
116, 30270.03, 8091.31, 187500.00, 187500.00, 187500.00, 187500.00, 187500.00, 187500.00, 0.152, 0.896, -0.472, 02:43:49.787
117, 30280.04, 8082.70, 187500.00, 187500.00, 187500.00, 187500.00, 187500.00, 187500.00, 0.000, 0.000, 0.000, 02:43:49.787
118, 30251.50, 8065.02, 187500.00, 187500.00, 187500.00, 187500.00, 187500.00, 187500.00, 0.000, 0.000, 0.000, 02:43:49.787
119, 30225.17, 8061.67, 187500.00, 187500.00, 187500.00, 187500.00, 187500.00, 187500.00, 0.000, 0.000, 0.000, 02:43:49.787
120, 30243.99, 8086.39, 187500.00, 187500.00, 187500.00, 187500.00, 187500.00, 187500.00, 0.000, 0.000, 0.000, 02:43:49.787
121, 30257.71, 8088.51, 187500.00, 187500.00, 187500.00, 187500.00, 187500.00, 187500.00, 0.000, 0.000, 0.000, 02:43:49.787
122, 30241.08, 8071.84, 187500.00, 187500.00, 187500.00, 187500.00, 187500.00, 187500.00, 0.000, 0.000, 0.000, 02:43:49.788
123, 30218.48, 8061.96, 187500.00, 187500.00, 187500.00, 187500.00, 187500.00, 187500.00, 0.000, 0.000, 0.000, 02:43:49.788
124, 30235.07, 8063.53, 187500.00, 187500.00, 187500.00, 187500.00, 187500.00, 187500.00, 0.000, 0.000, 0.000, 02:43:49.788
125, 30245.73, 8063.97, 187500.00, 187500.00, 187500.00, 187500.00, 187500.00, 187500.00, 0.000, 0.000, 0.000, 02:43:49.788
126, 30241.64, 8081.97, 187500.00, 187500.00, 187500.00, 187500.00, 187500.00, 187500.00, 0.156, 0.898, -0.476, 02:43:49.788
127, 30229.15, 8077.07, 187500.00, 187500.00, 187500.00, 187500.00, 187500.00, 187500.00, 0.000, 0.000, 0.000, 02:43:49.788
128, 30235.72, 8076.58, 187500.00, 187500.00, 187500.00, 187500.00, 187500.00, 187500.00, 0.000, 0.000, 0.000, 02:43:49.788
129, 30259.70, 8100.54, 187500.00, 187500.00, 187500.00, 187500.00, 187500.00, 187500.00, 0.000, 0.000, 0.000, 02:43:49.788
130, 30242.36, 8080.62, 187500.00, 187500.00, 187500.00, 187500.00, 187500.00, 187500.00, 0.000, 0.000, 0.000, 02:43:49.788
131, 30226.24, 8052.98, 187500.00, 187500.00, 187500.00, 187500.00, 187500.00, 187500.00, 0.000, 0.000, 0.000, 02:43:49.789
132, 30225.88, 8033.91, 187500.00, 187500.00, 187500.00, 187500.00, 187500.00, 187500.00, 0.000, 0.000, 0.000, 02:43:49.789
133, 30242.22, 8075.86, 187500.00, 187500.00, 187500.00, 187500.00, 187500.00, 187500.00, 0.000, 0.000, 0.000, 02:43:49.789
134, 30244.26, 8092.23, 187500.00, 187500.00, 187500.00, 187500.00, 187500.00, 187500.00, 0.000, 0.000, 0.000, 02:43:49.789
135, 30224.23, 8082.75, 187500.00, 187500.00, 187500.00, 187500.00, 187500.00, 187500.00, 0.152, 0.894, -0.478, 02:43:49.789
136, 30219.71, 8080.45, 187500.00, 187500.00, 187500.00, 187500.00, 187500.00, 187500.00, 0.000, 0.000, 0.000, 02:43:49.789
137, 30252.82, 8101.64, 187500.00, 187500.00, 187500.00, 187500.00, 187500.00, 187500.00, 0.000, 0.000, 0.000, 02:43:49.789
138, 30252.17, 8081.68, 187500.00, 187500.00, 187500.00, 187500.00, 187500.00, 187500.00, 0.000, 0.000, 0.000, 02:43:49.789
139, 30233.82, 8078.14, 187500.00, 187500.00, 187500.00, 187500.00, 187500.00, 187500.00, 0.000, 0.000, 0.000, 02:43:49.789
140, 30219.83, 8046.20, 187500.00, 187500.00, 187500.00, 187500.00, 187500.00, 187500.00, 0.000, 0.000, 0.000, 02:43:49.789
141, 30251.72, 8084.33, 187500.00, 187500.00, 187500.00, 187500.00, 187500.00, 187500.00, 0.000, 0.000, 0.000, 02:43:49.790
142, 30260.86, 8117.68, 187500.00, 187500.00, 187500.00, 187500.00, 187500.00, 187500.00, 0.000, 0.000, 0.000, 02:43:49.790
143, 30256.37, 8111.47, 187500.00, 187500.00, 187500.00, 187500.00, 187500.00, 187500.00, 0.000, 0.000, 0.000, 02:43:49.790
144, 30231.87, 8082.59, 187500.00, 187500.00, 187500.00, 187500.00, 187500.00, 187500.00, 0.000, 0.000, 0.000, 02:43:49.790
145, 30252.32, 8089.12, 187500.00, 187500.00, 187500.00, 187500.00, 187500.00, 187500.00, 0.154, 0.892, -0.478, 02:43:49.790
146, 30254.13, 8098.39, 187500.00, 187500.00, 187500.00, 187500.00, 187500.00, 187500.00, 0.000, 0.000, 0.000, 02:43:49.790
147, 30238.53, 8095.98, 187500.00, 187500.00, 187500.00, 187500.00, 187500.00, 187500.00, 0.000, 0.000, 0.000, 02:43:49.790
148, 30220.79, 8073.11, 187500.00, 187500.00, 187500.00, 187500.00, 187500.00, 187500.00, 0.000, 0.000, 0.000, 02:43:49.790
149, 30255.30, 8097.84, 187500.00, 187500.00, 187500.00, 187500.00, 187500.00, 187500.00, 0.000, 0.000, 0.000, 02:43:49.790
150, 30267.97, 8111.81, 187500.00, 187500.00, 187500.00, 187500.00, 187500.00, 187500.00, 0.000, 0.000, 0.000, 02:43:49.791
151, 30255.52, 8100.99, 187500.00, 187500.00, 187500.00, 187500.00, 187500.00, 187500.00, 0.000, 0.000, 0.000, 02:43:49.791
152, 30227.25, 8069.67, 187500.00, 187500.00, 187500.00, 187500.00, 187500.00, 187500.00, 0.000, 0.000, 0.000, 02:43:49.791
153, 30240.72, 8083.62, 187500.00, 187500.00, 187500.00, 187500.00, 187500.00, 187500.00, 0.000, 0.000, 0.000, 02:43:49.791
154, 30253.20, 8105.95, 187500.00, 187500.00, 187500.00, 187500.00, 187500.00, 187500.00, 0.000, 0.000, 0.000, 02:43:49.791
155, 30240.93, 8109.88, 187500.00, 187500.00, 187500.00, 187500.00, 187500.00, 187500.00, 0.150, 0.894, -0.478, 02:43:49.791
156, 30219.07, 8076.76, 187500.00, 187500.00, 187500.00, 187500.00, 187500.00, 187500.00, 0.000, 0.000, 0.000, 02:43:49.791
157, 30216.00, 8069.18, 187500.00, 187500.00, 187500.00, 187500.00, 187500.00, 187500.00, 0.000, 0.000, 0.000, 02:43:49.791
158, 30246.96, 8091.02, 187500.00, 187500.00, 187500.00, 187500.00, 187500.00, 187500.00, 0.000, 0.000, 0.000, 02:43:49.792
159, 30236.59, 8064.51, 187500.00, 187500.00, 187500.00, 187500.00, 187500.00, 187500.00, 0.000, 0.000, 0.000, 02:43:49.792
160, 30207.04, 8059.12, 187500.00, 187500.00, 187500.00, 187500.00, 187500.00, 187500.00, 0.000, 0.000, 0.000, 02:43:49.792
161, 30207.29, 8087.04, 187500.00, 187500.00, 187500.00, 187500.00, 187500.00, 187500.00, 0.000, 0.000, 0.000, 02:43:49.792
162, 30228.07, 8104.43, 187500.00, 187500.00, 187500.00, 187500.00, 187500.00, 187500.00, 0.000, 0.000, 0.000, 02:43:49.792
163, 30232.59, 8106.66, 187500.00, 187500.00, 187500.00, 187500.00, 187500.00, 187500.00, 0.000, 0.000, 0.000, 02:43:49.792
164, 30223.36, 8092.96, 187500.00, 187500.00, 187500.00, 187500.00, 187500.00, 187500.00, 0.000, 0.000, 0.000, 02:43:49.792
165, 30198.35, 8052.35, 187500.00, 187500.00, 187500.00, 187500.00, 187500.00, 187500.00, 0.152, 0.892, -0.476, 02:43:49.792
166, 30223.16, 8100.43, 187500.00, 187500.00, 187500.00, 187500.00, 187500.00, 187500.00, 0.000, 0.000, 0.000, 02:43:49.792
167, 30218.48, 8094.44, 187500.00, 187500.00, 187500.00, 187500.00, 187500.00, 187500.00, 0.000, 0.000, 0.000, 02:43:49.792
168, 30206.39, 8081.16, 187500.00, 187500.00, 187500.00, 187500.00, 187500.00, 187500.00, 0.000, 0.000, 0.000, 02:43:49.793
169, 30191.08, 8067.39, 187500.00, 187500.00, 187500.00, 187500.00, 187500.00, 187500.00, 0.000, 0.000, 0.000, 02:43:49.793
170, 30202.53, 8083.26, 187500.00, 187500.00, 187500.00, 187500.00, 187500.00, 187500.00, 0.000, 0.000, 0.000, 02:43:49.793
171, 30212.47, 8081.76, 187500.00, 187500.00, 187500.00, 187500.00, 187500.00, 187500.00, 0.000, 0.000, 0.000, 02:43:49.793
172, 30199.31, 8063.70, 187500.00, 187500.00, 187500.00, 187500.00, 187500.00, 187500.00, 0.000, 0.000, 0.000, 02:43:49.793
173, 30174.00, 8037.46, 187500.00, 187500.00, 187500.00, 187500.00, 187500.00, 187500.00, 0.000, 0.000, 0.000, 02:43:49.793
174, 30197.29, 8084.94, 187500.00, 187500.00, 187500.00, 187500.00, 187500.00, 187500.00, 0.000, 0.000, 0.000, 02:43:49.793
175, 30211.53, 8102.82, 187500.00, 187500.00, 187500.00, 187500.00, 187500.00, 187500.00, 0.148, 0.890, -0.478, 02:43:49.793
176, 30190.03, 8087.49, 187500.00, 187500.00, 187500.00, 187500.00, 187500.00, 187500.00, 0.000, 0.000, 0.000, 02:43:49.794
177, 30183.93, 8080.67, 187500.00, 187500.00, 187500.00, 187500.00, 187500.00, 187500.00, 0.000, 0.000, 0.000, 02:43:49.794
178, 30185.20, 8076.87, 187500.00, 187500.00, 187500.00, 187500.00, 187500.00, 187500.00, 0.000, 0.000, 0.000, 02:43:49.794
179, 30191.01, 8083.42, 187500.00, 187500.00, 187500.00, 187500.00, 187500.00, 187500.00, 0.000, 0.000, 0.000, 02:43:49.794
180, 30182.59, 8085.97, 187500.00, 187500.00, 187500.00, 187500.00, 187500.00, 187500.00, 0.000, 0.000, 0.000, 02:43:49.794
181, 30169.78, 8085.70, 187500.00, 187500.00, 187500.00, 187500.00, 187500.00, 187500.00, 0.000, 0.000, 0.000, 02:43:49.794
182, 30180.46, 8069.74, 187500.00, 187500.00, 187500.00, 187500.00, 187500.00, 187500.00, 0.000, 0.000, 0.000, 02:43:49.794
183, 30210.42, 8080.24, 187500.00, 187500.00, 187500.00, 187500.00, 187500.00, 187500.00, 0.000, 0.000, 0.000, 02:43:49.794
184, 30214.13, 8105.26, 187500.00, 187500.00, 187500.00, 187500.00, 187500.00, 187500.00, 0.000, 0.000, 0.000, 02:43:49.795
185, 30201.81, 8078.61, 187500.00, 187500.00, 187500.00, 187500.00, 187500.00, 187500.00, 0.150, 0.892, -0.482, 02:43:49.795
186, 30199.87, 8071.71, 187500.00, 187500.00, 187500.00, 187500.00, 187500.00, 187500.00, 0.000, 0.000, 0.000, 02:43:49.795
187, 30227.34, 8115.09, 187500.00, 187500.00, 187500.00, 187500.00, 187500.00, 187500.00, 0.000, 0.000, 0.000, 02:43:49.795
188, 30226.93, 8108.36, 187500.00, 187500.00, 187500.00, 187500.00, 187500.00, 187500.00, 0.000, 0.000, 0.000, 02:43:49.795
189, 30203.40, 8077.61, 187500.00, 187500.00, 187500.00, 187500.00, 187500.00, 187500.00, 0.000, 0.000, 0.000, 02:43:49.795
190, 30173.29, 8056.44, 187500.00, 187500.00, 187500.00, 187500.00, 187500.00, 187500.00, 0.000, 0.000, 0.000, 02:43:49.795
191, 30194.50, 8079.51, 187500.00, 187500.00, 187500.00, 187500.00, 187500.00, 187500.00, 0.000, 0.000, 0.000, 02:43:49.795
192, 30223.94, 8119.65, 187500.00, 187500.00, 187500.00, 187500.00, 187500.00, 187500.00, 0.000, 0.000, 0.000, 02:43:49.795
193, 30225.32, 8114.13, 187500.00, 187500.00, 187500.00, 187500.00, 187500.00, 187500.00, 0.000, 0.000, 0.000, 02:43:49.796
194, 30200.74, 8077.94, 187500.00, 187500.00, 187500.00, 187500.00, 187500.00, 187500.00, 0.000, 0.000, 0.000, 02:43:49.796
195, 30215.42, 8080.40, 187500.00, 187500.00, 187500.00, 187500.00, 187500.00, 187500.00, 0.146, 0.892, -0.484, 02:43:49.796
196, 30243.38, 8086.30, 187500.00, 187500.00, 187500.00, 187500.00, 187500.00, 187500.00, 0.000, 0.000, 0.000, 02:43:49.796
197, 30245.71, 8091.22, 187500.00, 187500.00, 187500.00, 187500.00, 187500.00, 187500.00, 0.000, 0.000, 0.000, 02:43:49.796
198, 30227.78, 8059.44, 187500.00, 187500.00, 187500.00, 187500.00, 187500.00, 187500.00, 0.000, 0.000, 0.000, 02:43:49.796
199, 30247.74, 8062.92, 187500.00, 187500.00, 187500.00, 187500.00, 187500.00, 187500.00, 0.000, 0.000, 0.000, 02:43:49.796
200, 30267.64, 8085.88, 187500.00, 187500.00, 187500.00, 187500.00, 187500.00, 187500.00, 0.000, 0.000, 0.000, 02:43:49.796
201, 30260.60, 8095.38, 187500.00, 187500.00, 187500.00, 187500.00, 187500.00, 187500.00, 0.000, 0.000, 0.000, 02:43:49.796
202, 30223.85, 8099.09, 187500.00, 187500.00, 187500.00, 187500.00, 187500.00, 187500.00, 0.000, 0.000, 0.000, 02:43:49.797
203, 30208.02, 8099.47, 187500.00, 187500.00, 187500.00, 187500.00, 187500.00, 187500.00, 0.000, 0.000, 0.000, 02:43:49.797
204, 30219.51, 8093.52, 187500.00, 187500.00, 187500.00, 187500.00, 187500.00, 187500.00, 0.144, 0.890, -0.492, 02:43:49.797
205, 30215.11, 8077.96, 187500.00, 187500.00, 187500.00, 187500.00, 187500.00, 187500.00, 0.000, 0.000, 0.000, 02:43:49.797
206, 30223.56, 8068.17, 187500.00, 187500.00, 187500.00, 187500.00, 187500.00, 187500.00, 0.000, 0.000, 0.000, 02:43:49.797
207, 30237.69, 8062.12, 187500.00, 187500.00, 187500.00, 187500.00, 187500.00, 187500.00, 0.000, 0.000, 0.000, 02:43:49.797
208, 30258.47, 8090.30, 187500.00, 187500.00, 187500.00, 187500.00, 187500.00, 187500.00, 0.000, 0.000, 0.000, 02:43:49.797
209, 30257.40, 8094.08, 187500.00, 187500.00, 187500.00, 187500.00, 187500.00, 187500.00, 0.000, 0.000, 0.000, 02:43:49.797
210, 30237.13, 8075.53, 187500.00, 187500.00, 187500.00, 187500.00, 187500.00, 187500.00, 0.000, 0.000, 0.000, 02:43:49.797
211, 30216.21, 8048.42, 187500.00, 187500.00, 187500.00, 187500.00, 187500.00, 187500.00, 0.000, 0.000, 0.000, 02:43:49.798
212, 30244.66, 8070.75, 187500.00, 187500.00, 187500.00, 187500.00, 187500.00, 187500.00, 0.000, 0.000, 0.000, 02:43:49.798
213, 30242.00, 8076.38, 187500.00, 187500.00, 187500.00, 187500.00, 187500.00, 187500.00, 0.000, 0.000, 0.000, 02:43:49.798
214, 30235.56, 8080.49, 187500.00, 187500.00, 187500.00, 187500.00, 187500.00, 187500.00, 0.148, 0.892, -0.492, 02:43:49.798
215, 30225.06, 8058.59, 187500.00, 187500.00, 187500.00, 187500.00, 187500.00, 187500.00, 0.000, 0.000, 0.000, 02:43:49.798
216, 30244.50, 8073.58, 187500.00, 187500.00, 187500.00, 187500.00, 187500.00, 187500.00, 0.000, 0.000, 0.000, 02:43:49.798
217, 30253.22, 8086.06, 187500.00, 187500.00, 187500.00, 187500.00, 187500.00, 187500.00, 0.000, 0.000, 0.000, 02:43:49.798
218, 30235.83, 8057.49, 187500.00, 187500.00, 187500.00, 187500.00, 187500.00, 187500.00, 0.000, 0.000, 0.000, 02:43:49.798
219, 30205.05, 8036.99, 187500.00, 187500.00, 187500.00, 187500.00, 187500.00, 187500.00, 0.000, 0.000, 0.000, 02:43:49.798
220, 30209.30, 8060.20, 187500.00, 187500.00, 187500.00, 187500.00, 187500.00, 187500.00, 0.000, 0.000, 0.000, 02:43:49.799
221, 30178.83, 8082.52, 187500.00, 187500.00, 187500.00, 187500.00, 187500.00, 187500.00, 0.000, 0.000, 0.000, 02:43:49.799
222, 30185.56, 8079.17, 187500.00, 187500.00, 187500.00, 187500.00, 187500.00, 187500.00, 0.000, 0.000, 0.000, 02:43:49.799
223, 30180.40, 8046.09, 187500.00, 187500.00, 187500.00, 187500.00, 187500.00, 187500.00, 0.000, 0.000, 0.000, 02:43:49.799
224, 30167.99, 8057.49, 187500.00, 187500.00, 187500.00, 187500.00, 187500.00, 187500.00, 0.144, 0.888, -0.496, 02:43:49.799
225, 30135.54, 8079.31, 187500.00, 187500.00, 187500.00, 187500.00, 187500.00, 187500.00, 0.000, 0.000, 0.000, 02:43:50.268
226, 30108.04, 8064.58, 187500.00, 187500.00, 187500.00, 187500.00, 187500.00, 187500.00, 0.000, 0.000, 0.000, 02:43:50.268
227, 30078.03, 8051.34, 187500.00, 187500.00, 187500.00, 187500.00, 187500.00, 187500.00, 0.000, 0.000, 0.000, 02:43:50.268
228, 30113.07, 8050.11, 187500.00, 187500.00, 187500.00, 187500.00, 187500.00, 187500.00, 0.000, 0.000, 0.000, 02:43:50.268
229, 30037.86, 8065.36, 187500.00, 187500.00, 187500.00, 187500.00, 187500.00, 187500.00, 0.000, 0.000, 0.000, 02:43:50.268
230, 29898.56, 8044.44, 187500.00, 187500.00, 187500.00, 187500.00, 187500.00, 187500.00, 0.000, 0.000, 0.000, 02:43:50.268
231, 29819.95, 8016.16, 187500.00, 187500.00, 187500.00, 187500.00, 187500.00, 187500.00, 0.000, 0.000, 0.000, 02:43:50.268
232, 29804.22, 8018.22, 187500.00, 187500.00, 187500.00, 187500.00, 187500.00, 187500.00, 0.000, 0.000, 0.000, 02:43:50.268
233, 30008.45, 8052.60, 187500.00, 187500.00, 187500.00, 187500.00, 187500.00, 187500.00, 0.000, 0.000, 0.000, 02:43:50.268
234, 30177.09, 8044.04, 187500.00, 187500.00, 187500.00, 187500.00, 187500.00, 187500.00, 0.142, 0.878, -0.496, 02:43:50.269
235, 30196.07, 8026.04, 187500.00, 187500.00, 187500.00, 187500.00, 187500.00, 187500.00, 0.000, 0.000, 0.000, 02:43:50.269
236, 30185.22, 8005.77, 187500.00, 187500.00, 187500.00, 187500.00, 187500.00, 187500.00, 0.000, 0.000, 0.000, 02:43:50.269
237, 30205.68, 8033.53, 187500.00, 187500.00, 187500.00, 187500.00, 187500.00, 187500.00, 0.000, 0.000, 0.000, 02:43:50.269
238, 30214.06, 8036.70, 187500.00, 187500.00, 187500.00, 187500.00, 187500.00, 187500.00, 0.000, 0.000, 0.000, 02:43:50.269
239, 30205.83, 8015.98, 187500.00, 187500.00, 187500.00, 187500.00, 187500.00, 187500.00, 0.000, 0.000, 0.000, 02:43:50.269
240, 30192.67, 8001.16, 187500.00, 187500.00, 187500.00, 187500.00, 187500.00, 187500.00, 0.000, 0.000, 0.000, 02:43:50.269
241, 30204.29, 8018.46, 187500.00, 187500.00, 187500.00, 187500.00, 187500.00, 187500.00, 0.000, 0.000, 0.000, 02:43:50.269
242, 30210.08, 8023.25, 187500.00, 187500.00, 187500.00, 187500.00, 187500.00, 187500.00, 0.000, 0.000, 0.000, 02:43:50.269
243, 30201.68, 8027.92, 187500.00, 187500.00, 187500.00, 187500.00, 187500.00, 187500.00, 0.000, 0.000, 0.000, 02:43:50.270
244, 30185.36, 8005.70, 187500.00, 187500.00, 187500.00, 187500.00, 187500.00, 187500.00, 0.136, 0.878, -0.500, 02:43:50.270
245, 30196.67, 8022.09, 187500.00, 187500.00, 187500.00, 187500.00, 187500.00, 187500.00, 0.000, 0.000, 0.000, 02:43:50.270
246, 30211.53, 8045.17, 187500.00, 187500.00, 187500.00, 187500.00, 187500.00, 187500.00, 0.000, 0.000, 0.000, 02:43:50.270
247, 30207.22, 8034.58, 187500.00, 187500.00, 187500.00, 187500.00, 187500.00, 187500.00, 0.000, 0.000, 0.000, 02:43:50.270
248, 30182.92, 8002.95, 187500.00, 187500.00, 187500.00, 187500.00, 187500.00, 187500.00, 0.000, 0.000, 0.000, 02:43:50.270
249, 30199.75, 8006.71, 187500.00, 187500.00, 187500.00, 187500.00, 187500.00, 187500.00, 0.000, 0.000, 0.000, 02:43:50.270
250, 30213.41, 8020.54, 187500.00, 187500.00, 187500.00, 187500.00, 187500.00, 187500.00, 0.000, 0.000, 0.000, 02:43:50.270
251, 30205.48, 8017.15, 187500.00, 187500.00, 187500.00, 187500.00, 187500.00, 187500.00, 0.000, 0.000, 0.000, 02:43:50.271
252, 30184.11, 8001.72, 187500.00, 187500.00, 187500.00, 187500.00, 187500.00, 187500.00, 0.000, 0.000, 0.000, 02:43:50.271
253, 30191.77, 8004.67, 187500.00, 187500.00, 187500.00, 187500.00, 187500.00, 187500.00, 0.000, 0.000, 0.000, 02:43:50.271
254, 30215.15, 8025.35, 187500.00, 187500.00, 187500.00, 187500.00, 187500.00, 187500.00, 0.136, 0.882, -0.502, 02:43:50.271
255, 30211.64, 8026.47, 187500.00, 187500.00, 187500.00, 187500.00, 187500.00, 187500.00, 0.000, 0.000, 0.000, 02:43:50.271
0, 30191.46, 8003.73, 187500.00, 187500.00, 187500.00, 187500.00, 187500.00, 187500.00, 0.000, 0.000, 0.000, 02:43:50.271
1, 30188.11, 7999.44, 187500.00, 187500.00, 187500.00, 187500.00, 187500.00, 187500.00, 0.000, 0.000, 0.000, 02:43:50.271
2, 30215.04, 8025.77, 187500.00, 187500.00, 187500.00, 187500.00, 187500.00, 187500.00, 0.000, 0.000, 0.000, 02:43:50.271
3, 30216.74, 8029.86, 187500.00, 187500.00, 187500.00, 187500.00, 187500.00, 187500.00, 0.000, 0.000, 0.000, 02:43:50.271
4, 30195.02, 8002.66, 187500.00, 187500.00, 187500.00, 187500.00, 187500.00, 187500.00, 0.000, 0.000, 0.000, 02:43:50.271
5, 30181.36, 7994.68, 187500.00, 187500.00, 187500.00, 187500.00, 187500.00, 187500.00, 0.000, 0.000, 0.000, 02:43:50.272
6, 30215.53, 8026.69, 187500.00, 187500.00, 187500.00, 187500.00, 187500.00, 187500.00, 0.000, 0.000, 0.000, 02:43:50.272
7, 30216.79, 8022.09, 187500.00, 187500.00, 187500.00, 187500.00, 187500.00, 187500.00, 0.128, 0.888, -0.502, 02:43:50.272
8, 30209.34, 8035.65, 187500.00, 187500.00, 187500.00, 187500.00, 187500.00, 187500.00, 0.000, 0.000, 0.000, 02:43:50.272
9, 30187.73, 8016.97, 187500.00, 187500.00, 187500.00, 187500.00, 187500.00, 187500.00, 0.000, 0.000, 0.000, 02:43:50.272
10, 30201.50, 8038.45, 187500.00, 187500.00, 187500.00, 187500.00, 187500.00, 187500.00, 0.000, 0.000, 0.000, 02:43:50.272
11, 30205.77, 8039.25, 187500.00, 187500.00, 187500.00, 187500.00, 187500.00, 187500.00, 0.000, 0.000, 0.000, 02:43:50.272
12, 30183.08, 8015.09, 187500.00, 187500.00, 187500.00, 187500.00, 187500.00, 187500.00, 0.000, 0.000, 0.000, 02:43:50.272
13, 30126.60, 7996.74, 187500.00, 187500.00, 187500.00, 187500.00, 187500.00, 187500.00, 0.000, 0.000, 0.000, 02:43:50.272
14, 30037.70, 8030.38, 187500.00, 187500.00, 187500.00, 187500.00, 187500.00, 187500.00, 0.000, 0.000, 0.000, 02:43:50.273
15, 29953.86, 8041.62, 187500.00, 187500.00, 187500.00, 187500.00, 187500.00, 187500.00, 0.000, 0.000, 0.000, 02:43:50.273
16, 29859.09, 8035.70, 187500.00, 187500.00, 187500.00, 187500.00, 187500.00, 187500.00, 0.000, 0.000, 0.000, 02:43:50.273
17, 29733.56, 8026.35, 187500.00, 187500.00, 187500.00, 187500.00, 187500.00, 187500.00, 0.130, 0.884, -0.500, 02:43:50.273
18, 29602.74, 8027.00, 187500.00, 187500.00, 187500.00, 187500.00, 187500.00, 187500.00, 0.000, 0.000, 0.000, 02:43:50.273
19, 29470.71, 8038.87, 187500.00, 187500.00, 187500.00, 187500.00, 187500.00, 187500.00, 0.000, 0.000, 0.000, 02:43:50.273
20, 29288.45, 8043.99, 187500.00, 187500.00, 187500.00, 187500.00, 187500.00, 187500.00, 0.000, 0.000, 0.000, 02:43:50.273
21, 29110.38, 8031.23, 187500.00, 187500.00, 187500.00, 187500.00, 187500.00, 187500.00, 0.000, 0.000, 0.000, 02:43:50.273
22, 28929.01, 8026.11, 187500.00, 187500.00, 187500.00, 187500.00, 187500.00, 187500.00, 0.000, 0.000, 0.000, 02:43:50.273
23, 28751.90, 8039.10, 187500.00, 187500.00, 187500.00, 187500.00, 187500.00, 187500.00, 0.000, 0.000, 0.000, 02:43:50.274
24, 28592.31, 8018.22, 187500.00, 187500.00, 187500.00, 187500.00, 187500.00, 187500.00, 0.000, 0.000, 0.000, 02:43:50.274
25, 28418.01, 8000.09, 187500.00, 187500.00, 187500.00, 187500.00, 187500.00, 187500.00, 0.000, 0.000, 0.000, 02:43:50.274
26, 28232.04, 7995.91, 187500.00, 187500.00, 187500.00, 187500.00, 187500.00, 187500.00, 0.000, 0.000, 0.000, 02:43:50.274
27, 28100.46, 8007.38, 187500.00, 187500.00, 187500.00, 187500.00, 187500.00, 187500.00, 0.128, 0.886, -0.496, 02:43:50.274
28, 28020.95, 8012.83, 187500.00, 187500.00, 187500.00, 187500.00, 187500.00, 187500.00, 0.000, 0.000, 0.000, 02:43:50.274
29, 27992.52, 8037.98, 187500.00, 187500.00, 187500.00, 187500.00, 187500.00, 187500.00, 0.000, 0.000, 0.000, 02:43:50.274
30, 28051.62, 8016.32, 187500.00, 187500.00, 187500.00, 187500.00, 187500.00, 187500.00, 0.000, 0.000, 0.000, 02:43:50.274
31, 28208.59, 8045.98, 187500.00, 187500.00, 187500.00, 187500.00, 187500.00, 187500.00, 0.000, 0.000, 0.000, 02:43:50.274
32, 28424.38, 8056.93, 187500.00, 187500.00, 187500.00, 187500.00, 187500.00, 187500.00, 0.000, 0.000, 0.000, 02:43:50.275
33, 28952.79, 8032.66, 187500.00, 187500.00, 187500.00, 187500.00, 187500.00, 187500.00, 0.000, 0.000, 0.000, 02:43:50.275
34, 29552.69, 8003.09, 187500.00, 187500.00, 187500.00, 187500.00, 187500.00, 187500.00, 0.000, 0.000, 0.000, 02:43:50.275
35, 29761.15, 8025.28, 187500.00, 187500.00, 187500.00, 187500.00, 187500.00, 187500.00, 0.000, 0.000, 0.000, 02:43:50.275
36, 29857.73, 8035.03, 187500.00, 187500.00, 187500.00, 187500.00, 187500.00, 187500.00, 0.000, 0.000, 0.000, 02:43:50.275
37, 29946.44, 8021.28, 187500.00, 187500.00, 187500.00, 187500.00, 187500.00, 187500.00, 0.128, 0.888, -0.494, 02:43:50.275
38, 30017.81, 8005.75, 187500.00, 187500.00, 187500.00, 187500.00, 187500.00, 187500.00, 0.000, 0.000, 0.000, 02:43:50.276
39, 30051.45, 8019.45, 187500.00, 187500.00, 187500.00, 187500.00, 187500.00, 187500.00, 0.000, 0.000, 0.000, 02:43:50.276
40, 30063.34, 8029.77, 187500.00, 187500.00, 187500.00, 187500.00, 187500.00, 187500.00, 0.000, 0.000, 0.000, 02:43:50.276
41, 30012.78, 8033.08, 187500.00, 187500.00, 187500.00, 187500.00, 187500.00, 187500.00, 0.000, 0.000, 0.000, 02:43:50.276
42, 29952.43, 8003.62, 187500.00, 187500.00, 187500.00, 187500.00, 187500.00, 187500.00, 0.000, 0.000, 0.000, 02:43:50.276
43, 29870.60, 8002.46, 187500.00, 187500.00, 187500.00, 187500.00, 187500.00, 187500.00, 0.000, 0.000, 0.000, 02:43:50.276
44, 29806.01, 8005.93, 187500.00, 187500.00, 187500.00, 187500.00, 187500.00, 187500.00, 0.000, 0.000, 0.000, 02:43:50.276
45, 29678.89, 8027.58, 187500.00, 187500.00, 187500.00, 187500.00, 187500.00, 187500.00, 0.000, 0.000, 0.000, 02:43:50.276
46, 29525.71, 8013.17, 187500.00, 187500.00, 187500.00, 187500.00, 187500.00, 187500.00, 0.000, 0.000, 0.000, 02:43:50.277
47, 29358.30, 8011.22, 187500.00, 187500.00, 187500.00, 187500.00, 187500.00, 187500.00, 0.128, 0.888, -0.492, 02:43:50.277
48, 29198.06, 8035.30, 187500.00, 187500.00, 187500.00, 187500.00, 187500.00, 187500.00, 0.000, 0.000, 0.000, 02:43:50.277
49, 29017.86, 8023.40, 187500.00, 187500.00, 187500.00, 187500.00, 187500.00, 187500.00, 0.000, 0.000, 0.000, 02:43:50.277
50, 28860.41, 8000.67, 187500.00, 187500.00, 187500.00, 187500.00, 187500.00, 187500.00, 0.000, 0.000, 0.000, 02:43:50.277
51, 28709.61, 7996.40, 187500.00, 187500.00, 187500.00, 187500.00, 187500.00, 187500.00, 0.000, 0.000, 0.000, 02:43:50.277
52, 28544.14, 8013.95, 187500.00, 187500.00, 187500.00, 187500.00, 187500.00, 187500.00, 0.000, 0.000, 0.000, 02:43:50.278
53, 28353.84, 8022.35, 187500.00, 187500.00, 187500.00, 187500.00, 187500.00, 187500.00, 0.000, 0.000, 0.000, 02:43:50.278
54, 28189.55, 8017.26, 187500.00, 187500.00, 187500.00, 187500.00, 187500.00, 187500.00, 0.000, 0.000, 0.000, 02:43:50.278
55, 28025.87, 7998.19, 187500.00, 187500.00, 187500.00, 187500.00, 187500.00, 187500.00, 0.000, 0.000, 0.000, 02:43:50.278
56, 27862.30, 8028.50, 187500.00, 187500.00, 187500.00, 187500.00, 187500.00, 187500.00, 0.000, 0.000, 0.000, 02:43:50.278
57, 27681.94, 8041.13, 187500.00, 187500.00, 187500.00, 187500.00, 187500.00, 187500.00, 0.128, 0.888, -0.494, 02:43:50.278
58, 27508.58, 8034.56, 187500.00, 187500.00, 187500.00, 187500.00, 187500.00, 187500.00, 0.000, 0.000, 0.000, 02:43:50.278
59, 27319.42, 8001.39, 187500.00, 187500.00, 187500.00, 187500.00, 187500.00, 187500.00, 0.000, 0.000, 0.000, 02:43:50.278
60, 27166.82, 8009.26, 187500.00, 187500.00, 187500.00, 187500.00, 187500.00, 187500.00, 0.000, 0.000, 0.000, 02:43:50.278
61, 27030.05, 8001.72, 187500.00, 187500.00, 187500.00, 187500.00, 187500.00, 187500.00, 0.000, 0.000, 0.000, 02:43:50.279
62, 26860.04, 8006.46, 187500.00, 187500.00, 187500.00, 187500.00, 187500.00, 187500.00, 0.000, 0.000, 0.000, 02:43:50.279
63, 26695.49, 7997.68, 187500.00, 187500.00, 187500.00, 187500.00, 187500.00, 187500.00, 0.000, 0.000, 0.000, 02:43:50.279
64, 26521.08, 7989.99, 187500.00, 187500.00, 187500.00, 187500.00, 187500.00, 187500.00, 0.000, 0.000, 0.000, 02:43:50.279
65, 26337.75, 8010.91, 187500.00, 187500.00, 187500.00, 187500.00, 187500.00, 187500.00, 0.000, 0.000, 0.000, 02:43:50.279
66, 26128.09, 8028.72, 187500.00, 187500.00, 187500.00, 187500.00, 187500.00, 187500.00, 0.136, 0.882, -0.494, 02:43:50.279
67, 25935.18, 7981.18, 187500.00, 187500.00, 187500.00, 187500.00, 187500.00, 187500.00, 0.000, 0.000, 0.000, 02:43:50.279
68, 25743.35, 7998.44, 187500.00, 187500.00, 187500.00, 187500.00, 187500.00, 187500.00, 0.000, 0.000, 0.000, 02:43:50.279
69, 25545.34, 8039.88, 187500.00, 187500.00, 187500.00, 187500.00, 187500.00, 187500.00, 0.000, 0.000, 0.000, 02:43:50.280
70, 25325.08, 8040.37, 187500.00, 187500.00, 187500.00, 187500.00, 187500.00, 187500.00, 0.000, 0.000, 0.000, 02:43:50.280
71, 25111.11, 8017.19, 187500.00, 187500.00, 187500.00, 187500.00, 187500.00, 187500.00, 0.000, 0.000, 0.000, 02:43:50.280
72, 24925.75, 7996.65, 187500.00, 187500.00, 187500.00, 187500.00, 187500.00, 187500.00, 0.000, 0.000, 0.000, 02:43:50.280
73, 24739.78, 8025.13, 187500.00, 187500.00, 187500.00, 187500.00, 187500.00, 187500.00, 0.000, 0.000, 0.000, 02:43:50.280
74, 24559.87, 8034.74, 187500.00, 187500.00, 187500.00, 187500.00, 187500.00, 187500.00, 0.000, 0.000, 0.000, 02:43:50.280
75, 24374.73, 8026.15, 187500.00, 187500.00, 187500.00, 187500.00, 187500.00, 187500.00, 0.000, 0.000, 0.000, 02:43:50.280
76, 24206.33, 8011.65, 187500.00, 187500.00, 187500.00, 187500.00, 187500.00, 187500.00, 0.136, 0.882, -0.506, 02:43:50.281
77, 24043.14, 8033.57, 187500.00, 187500.00, 187500.00, 187500.00, 187500.00, 187500.00, 0.000, 0.000, 0.000, 02:43:50.281
78, 23892.70, 8040.15, 187500.00, 187500.00, 187500.00, 187500.00, 187500.00, 187500.00, 0.000, 0.000, 0.000, 02:43:50.281
79, 23765.13, 8030.67, 187500.00, 187500.00, 187500.00, 187500.00, 187500.00, 187500.00, 0.000, 0.000, 0.000, 02:43:50.281
80, 23576.80, 8039.56, 187500.00, 187500.00, 187500.00, 187500.00, 187500.00, 187500.00, 0.000, 0.000, 0.000, 02:43:50.281
81, 23424.31, 8056.71, 187500.00, 187500.00, 187500.00, 187500.00, 187500.00, 187500.00, 0.000, 0.000, 0.000, 02:43:50.281
82, 23321.56, 8070.54, 187500.00, 187500.00, 187500.00, 187500.00, 187500.00, 187500.00, 0.000, 0.000, 0.000, 02:43:50.282
83, 23179.94, 8065.47, 187500.00, 187500.00, 187500.00, 187500.00, 187500.00, 187500.00, 0.000, 0.000, 0.000, 02:43:50.282
84, 23054.91, 8025.08, 187500.00, 187500.00, 187500.00, 187500.00, 187500.00, 187500.00, 0.000, 0.000, 0.000, 02:43:50.282
85, 22922.70, 8029.80, 187500.00, 187500.00, 187500.00, 187500.00, 187500.00, 187500.00, 0.000, 0.000, 0.000, 02:43:50.282
86, 22801.48, 8065.38, 187500.00, 187500.00, 187500.00, 187500.00, 187500.00, 187500.00, 0.130, 0.880, -0.502, 02:43:50.282
87, 22687.45, 8059.55, 187500.00, 187500.00, 187500.00, 187500.00, 187500.00, 187500.00, 0.000, 0.000, 0.000, 02:43:50.282
88, 22556.20, 8038.76, 187500.00, 187500.00, 187500.00, 187500.00, 187500.00, 187500.00, 0.000, 0.000, 0.000, 02:43:50.282
89, 22424.10, 8054.07, 187500.00, 187500.00, 187500.00, 187500.00, 187500.00, 187500.00, 0.000, 0.000, 0.000, 02:43:50.282
90, 22306.68, 8060.69, 187500.00, 187500.00, 187500.00, 187500.00, 187500.00, 187500.00, 0.000, 0.000, 0.000, 02:43:50.747
91, 22166.98, 8048.53, 187500.00, 187500.00, 187500.00, 187500.00, 187500.00, 187500.00, 0.000, 0.000, 0.000, 02:43:50.747
92, 22044.81, 8021.46, 187500.00, 187500.00, 187500.00, 187500.00, 187500.00, 187500.00, 0.000, 0.000, 0.000, 02:43:50.747
93, 21932.27, 8027.81, 187500.00, 187500.00, 187500.00, 187500.00, 187500.00, 187500.00, 0.000, 0.000, 0.000, 02:43:50.747
94, 21826.10, 8059.44, 187500.00, 187500.00, 187500.00, 187500.00, 187500.00, 187500.00, 0.000, 0.000, 0.000, 02:43:50.747
95, 21678.91, 8071.95, 187500.00, 187500.00, 187500.00, 187500.00, 187500.00, 187500.00, 0.000, 0.000, 0.000, 02:43:50.747
96, 21553.59, 8048.57, 187500.00, 187500.00, 187500.00, 187500.00, 187500.00, 187500.00, 0.132, 0.884, -0.492, 02:43:50.748
97, 21455.26, 8031.56, 187500.00, 187500.00, 187500.00, 187500.00, 187500.00, 187500.00, 0.000, 0.000, 0.000, 02:43:50.748
98, 21350.88, 8065.60, 187500.00, 187500.00, 187500.00, 187500.00, 187500.00, 187500.00, 0.000, 0.000, 0.000, 02:43:50.748
99, 21232.86, 8069.76, 187500.00, 187500.00, 187500.00, 187500.00, 187500.00, 187500.00, 0.000, 0.000, 0.000, 02:43:50.748
100, 21148.26, 8052.62, 187500.00, 187500.00, 187500.00, 187500.00, 187500.00, 187500.00, 0.000, 0.000, 0.000, 02:43:50.748
101, 21025.68, 8036.84, 187500.00, 187500.00, 187500.00, 187500.00, 187500.00, 187500.00, 0.000, 0.000, 0.000, 02:43:50.748
102, 20931.16, 8035.94, 187500.00, 187500.00, 187500.00, 187500.00, 187500.00, 187500.00, 0.000, 0.000, 0.000, 02:43:50.748
103, 20827.60, 8044.30, 187500.00, 187500.00, 187500.00, 187500.00, 187500.00, 187500.00, 0.000, 0.000, 0.000, 02:43:50.748
104, 20734.39, 8061.18, 187500.00, 187500.00, 187500.00, 187500.00, 187500.00, 187500.00, 0.000, 0.000, 0.000, 02:43:50.748
105, 20675.65, 8060.28, 187500.00, 187500.00, 187500.00, 187500.00, 187500.00, 187500.00, 0.000, 0.000, 0.000, 02:43:50.749
106, 20642.95, 8073.76, 187500.00, 187500.00, 187500.00, 187500.00, 187500.00, 187500.00, 0.132, 0.884, -0.496, 02:43:50.749
107, 20595.92, 8093.28, 187500.00, 187500.00, 187500.00, 187500.00, 187500.00, 187500.00, 0.000, 0.000, 0.000, 02:43:50.749
108, 20519.08, 8083.49, 187500.00, 187500.00, 187500.00, 187500.00, 187500.00, 187500.00, 0.000, 0.000, 0.000, 02:43:50.749
109, 20456.27, 8049.33, 187500.00, 187500.00, 187500.00, 187500.00, 187500.00, 187500.00, 0.000, 0.000, 0.000, 02:43:50.749
110, 20402.40, 8059.79, 187500.00, 187500.00, 187500.00, 187500.00, 187500.00, 187500.00, 0.000, 0.000, 0.000, 02:43:50.749
111, 20312.06, 8062.68, 187500.00, 187500.00, 187500.00, 187500.00, 187500.00, 187500.00, 0.000, 0.000, 0.000, 02:43:50.749
112, 20203.18, 8053.58, 187500.00, 187500.00, 187500.00, 187500.00, 187500.00, 187500.00, 0.000, 0.000, 0.000, 02:43:50.749
113, 20097.73, 8044.15, 187500.00, 187500.00, 187500.00, 187500.00, 187500.00, 187500.00, 0.000, 0.000, 0.000, 02:43:50.749
114, 20010.26, 8043.41, 187500.00, 187500.00, 187500.00, 187500.00, 187500.00, 187500.00, 0.000, 0.000, 0.000, 02:43:50.750
115, 19913.15, 8063.30, 187500.00, 187500.00, 187500.00, 187500.00, 187500.00, 187500.00, 0.000, 0.000, 0.000, 02:43:50.750
116, 19825.50, 8063.57, 187500.00, 187500.00, 187500.00, 187500.00, 187500.00, 187500.00, 0.132, 0.882, -0.500, 02:43:50.750
117, 19742.83, 8028.66, 187500.00, 187500.00, 187500.00, 187500.00, 187500.00, 187500.00, 0.000, 0.000, 0.000, 02:43:50.750
118, 19659.72, 8041.53, 187500.00, 187500.00, 187500.00, 187500.00, 187500.00, 187500.00, 0.000, 0.000, 0.000, 02:43:50.750
119, 19621.41, 8073.67, 187500.00, 187500.00, 187500.00, 187500.00, 187500.00, 187500.00, 0.000, 0.000, 0.000, 02:43:50.750
120, 19599.82, 8067.06, 187500.00, 187500.00, 187500.00, 187500.00, 187500.00, 187500.00, 0.000, 0.000, 0.000, 02:43:50.750
121, 19582.56, 8035.74, 187500.00, 187500.00, 187500.00, 187500.00, 187500.00, 187500.00, 0.000, 0.000, 0.000, 02:43:50.750
122, 19573.56, 8014.53, 187500.00, 187500.00, 187500.00, 187500.00, 187500.00, 187500.00, 0.000, 0.000, 0.000, 02:43:50.750
123, 19532.12, 8033.08, 187500.00, 187500.00, 187500.00, 187500.00, 187500.00, 187500.00, 0.000, 0.000, 0.000, 02:43:50.751
124, 19471.92, 8050.79, 187500.00, 187500.00, 187500.00, 187500.00, 187500.00, 187500.00, 0.000, 0.000, 0.000, 02:43:50.751
125, 19405.85, 8037.89, 187500.00, 187500.00, 187500.00, 187500.00, 187500.00, 187500.00, 0.128, 0.888, -0.490, 02:43:50.751
126, 19341.77, 8022.47, 187500.00, 187500.00, 187500.00, 187500.00, 187500.00, 187500.00, 0.000, 0.000, 0.000, 02:43:50.751
127, 19264.10, 8056.24, 187500.00, 187500.00, 187500.00, 187500.00, 187500.00, 187500.00, 0.000, 0.000, 0.000, 02:43:50.751
128, 19205.98, 8050.63, 187500.00, 187500.00, 187500.00, 187500.00, 187500.00, 187500.00, 0.000, 0.000, 0.000, 02:43:50.752
129, 19139.93, 8050.47, 187500.00, 187500.00, 187500.00, 187500.00, 187500.00, 187500.00, 0.000, 0.000, 0.000, 02:43:50.752
130, 19114.74, 8029.48, 187500.00, 187500.00, 187500.00, 187500.00, 187500.00, 187500.00, 0.000, 0.000, 0.000, 02:43:50.752
131, 19121.00, 8035.30, 187500.00, 187500.00, 187500.00, 187500.00, 187500.00, 187500.00, 0.000, 0.000, 0.000, 02:43:50.752
132, 19111.03, 8044.93, 187500.00, 187500.00, 187500.00, 187500.00, 187500.00, 187500.00, 0.000, 0.000, 0.000, 02:43:50.752
133, 19115.93, 8047.16, 187500.00, 187500.00, 187500.00, 187500.00, 187500.00, 187500.00, 0.000, 0.000, 0.000, 02:43:50.752
134, 19088.08, 8049.20, 187500.00, 187500.00, 187500.00, 187500.00, 187500.00, 187500.00, 0.000, 0.000, 0.000, 02:43:50.752
135, 19057.63, 8051.19, 187500.00, 187500.00, 187500.00, 187500.00, 187500.00, 187500.00, 0.126, 0.886, -0.490, 02:43:50.752
136, 19040.36, 8048.10, 187500.00, 187500.00, 187500.00, 187500.00, 187500.00, 187500.00, 0.000, 0.000, 0.000, 02:43:50.752
137, 19023.46, 8053.78, 187500.00, 187500.00, 187500.00, 187500.00, 187500.00, 187500.00, 0.000, 0.000, 0.000, 02:43:50.752
138, 18990.80, 8043.01, 187500.00, 187500.00, 187500.00, 187500.00, 187500.00, 187500.00, 0.000, 0.000, 0.000, 02:43:50.752
139, 18972.96, 8038.18, 187500.00, 187500.00, 187500.00, 187500.00, 187500.00, 187500.00, 0.000, 0.000, 0.000, 02:43:50.752
140, 18942.41, 8028.43, 187500.00, 187500.00, 187500.00, 187500.00, 187500.00, 187500.00, 0.000, 0.000, 0.000, 02:43:50.753
141, 18895.58, 8046.40, 187500.00, 187500.00, 187500.00, 187500.00, 187500.00, 187500.00, 0.000, 0.000, 0.000, 02:43:50.753
142, 18861.36, 8032.28, 187500.00, 187500.00, 187500.00, 187500.00, 187500.00, 187500.00, 0.000, 0.000, 0.000, 02:43:50.753
143, 18836.24, 8029.62, 187500.00, 187500.00, 187500.00, 187500.00, 187500.00, 187500.00, 0.000, 0.000, 0.000, 02:43:50.753
144, 18813.96, 8052.73, 187500.00, 187500.00, 187500.00, 187500.00, 187500.00, 187500.00, 0.000, 0.000, 0.000, 02:43:50.753
145, 18793.26, 8029.89, 187500.00, 187500.00, 187500.00, 187500.00, 187500.00, 187500.00, 0.136, 0.890, -0.496, 02:43:50.753
146, 18724.79, 8026.42, 187500.00, 187500.00, 187500.00, 187500.00, 187500.00, 187500.00, 0.000, 0.000, 0.000, 02:43:50.753
147, 18658.74, 8020.01, 187500.00, 187500.00, 187500.00, 187500.00, 187500.00, 187500.00, 0.000, 0.000, 0.000, 02:43:50.753
148, 18617.88, 8044.59, 187500.00, 187500.00, 187500.00, 187500.00, 187500.00, 187500.00, 0.000, 0.000, 0.000, 02:43:50.754
149, 18565.49, 8048.15, 187500.00, 187500.00, 187500.00, 187500.00, 187500.00, 187500.00, 0.000, 0.000, 0.000, 02:43:50.754
150, 18515.47, 8034.80, 187500.00, 187500.00, 187500.00, 187500.00, 187500.00, 187500.00, 0.000, 0.000, 0.000, 02:43:50.754
151, 18486.26, 8002.80, 187500.00, 187500.00, 187500.00, 187500.00, 187500.00, 187500.00, 0.000, 0.000, 0.000, 02:43:50.754
152, 18472.17, 8036.14, 187500.00, 187500.00, 187500.00, 187500.00, 187500.00, 187500.00, 0.000, 0.000, 0.000, 02:43:50.754
153, 18452.86, 8066.70, 187500.00, 187500.00, 187500.00, 187500.00, 187500.00, 187500.00, 0.000, 0.000, 0.000, 02:43:50.754
154, 18426.91, 8048.10, 187500.00, 187500.00, 187500.00, 187500.00, 187500.00, 187500.00, 0.000, 0.000, 0.000, 02:43:50.754
155, 18422.78, 8025.48, 187500.00, 187500.00, 187500.00, 187500.00, 187500.00, 187500.00, 0.136, 0.888, -0.496, 02:43:50.754
156, 18460.55, 8040.62, 187500.00, 187500.00, 187500.00, 187500.00, 187500.00, 187500.00, 0.000, 0.000, 0.000, 02:43:50.754
157, 18475.24, 8056.10, 187500.00, 187500.00, 187500.00, 187500.00, 187500.00, 187500.00, 0.000, 0.000, 0.000, 02:43:50.755
158, 18481.23, 8042.74, 187500.00, 187500.00, 187500.00, 187500.00, 187500.00, 187500.00, 0.000, 0.000, 0.000, 02:43:50.755
159, 18454.72, 8015.36, 187500.00, 187500.00, 187500.00, 187500.00, 187500.00, 187500.00, 0.000, 0.000, 0.000, 02:43:50.755
160, 18437.82, 8027.36, 187500.00, 187500.00, 187500.00, 187500.00, 187500.00, 187500.00, 0.000, 0.000, 0.000, 02:43:50.755
161, 18447.30, 8055.81, 187500.00, 187500.00, 187500.00, 187500.00, 187500.00, 187500.00, 0.000, 0.000, 0.000, 02:43:50.755
162, 18461.76, 8038.98, 187500.00, 187500.00, 187500.00, 187500.00, 187500.00, 187500.00, 0.000, 0.000, 0.000, 02:43:50.755
163, 18452.93, 8020.50, 187500.00, 187500.00, 187500.00, 187500.00, 187500.00, 187500.00, 0.000, 0.000, 0.000, 02:43:50.755
164, 18448.10, 8013.52, 187500.00, 187500.00, 187500.00, 187500.00, 187500.00, 187500.00, 0.000, 0.000, 0.000, 02:43:50.755
165, 18452.35, 8012.81, 187500.00, 187500.00, 187500.00, 187500.00, 187500.00, 187500.00, 0.132, 0.888, -0.490, 02:43:50.755
166, 18473.83, 8034.69, 187500.00, 187500.00, 187500.00, 187500.00, 187500.00, 187500.00, 0.000, 0.000, 0.000, 02:43:50.756
167, 18515.04, 8025.57, 187500.00, 187500.00, 187500.00, 187500.00, 187500.00, 187500.00, 0.000, 0.000, 0.000, 02:43:50.756
168, 18537.89, 8016.97, 187500.00, 187500.00, 187500.00, 187500.00, 187500.00, 187500.00, 0.000, 0.000, 0.000, 02:43:50.756
169, 18519.13, 8043.10, 187500.00, 187500.00, 187500.00, 187500.00, 187500.00, 187500.00, 0.000, 0.000, 0.000, 02:43:50.756
170, 18497.23, 8038.00, 187500.00, 187500.00, 187500.00, 187500.00, 187500.00, 187500.00, 0.000, 0.000, 0.000, 02:43:50.756
171, 18476.49, 8009.70, 187500.00, 187500.00, 187500.00, 187500.00, 187500.00, 187500.00, 0.000, 0.000, 0.000, 02:43:50.756
172, 18463.28, 8013.01, 187500.00, 187500.00, 187500.00, 187500.00, 187500.00, 187500.00, 0.000, 0.000, 0.000, 02:43:50.756
173, 18463.17, 8045.42, 187500.00, 187500.00, 187500.00, 187500.00, 187500.00, 187500.00, 0.000, 0.000, 0.000, 02:43:50.756
174, 18457.58, 8039.21, 187500.00, 187500.00, 187500.00, 187500.00, 187500.00, 187500.00, 0.000, 0.000, 0.000, 02:43:50.756
175, 18451.05, 8024.52, 187500.00, 187500.00, 187500.00, 187500.00, 187500.00, 187500.00, 0.126, 0.888, -0.498, 02:43:50.757
176, 18449.69, 7994.10, 187500.00, 187500.00, 187500.00, 187500.00, 187500.00, 187500.00, 0.000, 0.000, 0.000, 02:43:50.757
177, 18430.96, 8011.71, 187500.00, 187500.00, 187500.00, 187500.00, 187500.00, 187500.00, 0.000, 0.000, 0.000, 02:43:50.757
178, 18422.15, 8033.75, 187500.00, 187500.00, 187500.00, 187500.00, 187500.00, 187500.00, 0.000, 0.000, 0.000, 02:43:50.757
179, 18401.39, 8046.47, 187500.00, 187500.00, 187500.00, 187500.00, 187500.00, 187500.00, 0.000, 0.000, 0.000, 02:43:50.757
180, 18371.72, 8015.58, 187500.00, 187500.00, 187500.00, 187500.00, 187500.00, 187500.00, 0.000, 0.000, 0.000, 02:43:50.758
181, 18355.59, 8024.59, 187500.00, 187500.00, 187500.00, 187500.00, 187500.00, 187500.00, 0.000, 0.000, 0.000, 02:43:50.758
182, 18367.97, 8042.78, 187500.00, 187500.00, 187500.00, 187500.00, 187500.00, 187500.00, 0.000, 0.000, 0.000, 02:43:50.758
183, 18359.99, 8027.00, 187500.00, 187500.00, 187500.00, 187500.00, 187500.00, 187500.00, 0.000, 0.000, 0.000, 02:43:50.758
184, 18353.69, 8005.34, 187500.00, 187500.00, 187500.00, 187500.00, 187500.00, 187500.00, 0.000, 0.000, 0.000, 02:43:50.758
185, 18346.91, 8030.38, 187500.00, 187500.00, 187500.00, 187500.00, 187500.00, 187500.00, 0.126, 0.882, -0.496, 02:43:50.758
186, 18348.77, 8039.05, 187500.00, 187500.00, 187500.00, 187500.00, 187500.00, 187500.00, 0.000, 0.000, 0.000, 02:43:50.758
187, 18404.52, 8047.86, 187500.00, 187500.00, 187500.00, 187500.00, 187500.00, 187500.00, 0.000, 0.000, 0.000, 02:43:50.758
188, 18488.71, 8021.15, 187500.00, 187500.00, 187500.00, 187500.00, 187500.00, 187500.00, 0.000, 0.000, 0.000, 02:43:50.758
189, 18575.84, 8014.02, 187500.00, 187500.00, 187500.00, 187500.00, 187500.00, 187500.00, 0.000, 0.000, 0.000, 02:43:50.758
190, 18639.41, 8032.23, 187500.00, 187500.00, 187500.00, 187500.00, 187500.00, 187500.00, 0.000, 0.000, 0.000, 02:43:50.759
191, 18726.74, 8026.04, 187500.00, 187500.00, 187500.00, 187500.00, 187500.00, 187500.00, 0.000, 0.000, 0.000, 02:43:50.759
192, 18821.71, 8009.32, 187500.00, 187500.00, 187500.00, 187500.00, 187500.00, 187500.00, 0.000, 0.000, 0.000, 02:43:50.759
193, 18920.68, 8001.63, 187500.00, 187500.00, 187500.00, 187500.00, 187500.00, 187500.00, 0.000, 0.000, 0.000, 02:43:50.759
194, 19052.27, 8023.69, 187500.00, 187500.00, 187500.00, 187500.00, 187500.00, 187500.00, 0.126, 0.886, -0.496, 02:43:50.759
195, 19269.51, 8015.76, 187500.00, 187500.00, 187500.00, 187500.00, 187500.00, 187500.00, 0.000, 0.000, 0.000, 02:43:50.760
196, 19474.20, 7999.11, 187500.00, 187500.00, 187500.00, 187500.00, 187500.00, 187500.00, 0.000, 0.000, 0.000, 02:43:50.760
197, 19589.61, 7988.27, 187500.00, 187500.00, 187500.00, 187500.00, 187500.00, 187500.00, 0.000, 0.000, 0.000, 02:43:50.760
198, 19745.44, 8015.13, 187500.00, 187500.00, 187500.00, 187500.00, 187500.00, 187500.00, 0.000, 0.000, 0.000, 02:43:50.760
199, 19952.55, 8018.62, 187500.00, 187500.00, 187500.00, 187500.00, 187500.00, 187500.00, 0.000, 0.000, 0.000, 02:43:50.761
200, 20220.66, 8000.16, 187500.00, 187500.00, 187500.00, 187500.00, 187500.00, 187500.00, 0.000, 0.000, 0.000, 02:43:50.761
201, 20473.59, 7977.76, 187500.00, 187500.00, 187500.00, 187500.00, 187500.00, 187500.00, 0.000, 0.000, 0.000, 02:43:50.761
202, 20673.22, 8005.66, 187500.00, 187500.00, 187500.00, 187500.00, 187500.00, 187500.00, 0.000, 0.000, 0.000, 02:43:50.761
203, 20948.72, 8017.86, 187500.00, 187500.00, 187500.00, 187500.00, 187500.00, 187500.00, 0.000, 0.000, 0.000, 02:43:50.761
204, 21240.66, 7999.67, 187500.00, 187500.00, 187500.00, 187500.00, 187500.00, 187500.00, 0.126, 0.888, -0.494, 02:43:50.761
205, 21434.12, 7989.21, 187500.00, 187500.00, 187500.00, 187500.00, 187500.00, 187500.00, 0.000, 0.000, 0.000, 02:43:50.761
206, 21558.55, 8005.39, 187500.00, 187500.00, 187500.00, 187500.00, 187500.00, 187500.00, 0.000, 0.000, 0.000, 02:43:50.761
207, 21686.11, 8011.51, 187500.00, 187500.00, 187500.00, 187500.00, 187500.00, 187500.00, 0.000, 0.000, 0.000, 02:43:50.761
208, 21810.63, 8025.42, 187500.00, 187500.00, 187500.00, 187500.00, 187500.00, 187500.00, 0.000, 0.000, 0.000, 02:43:50.761
209, 21962.31, 8011.69, 187500.00, 187500.00, 187500.00, 187500.00, 187500.00, 187500.00, 0.000, 0.000, 0.000, 02:43:50.761
210, 22143.89, 8008.03, 187500.00, 187500.00, 187500.00, 187500.00, 187500.00, 187500.00, 0.000, 0.000, 0.000, 02:43:51.227
211, 22350.02, 8016.36, 187500.00, 187500.00, 187500.00, 187500.00, 187500.00, 187500.00, 0.000, 0.000, 0.000, 02:43:51.227
212, 22600.23, 8012.81, 187500.00, 187500.00, 187500.00, 187500.00, 187500.00, 187500.00, 0.000, 0.000, 0.000, 02:43:51.228
213, 22768.92, 7990.77, 187500.00, 187500.00, 187500.00, 187500.00, 187500.00, 187500.00, 0.000, 0.000, 0.000, 02:43:51.228
214, 22899.65, 7998.01, 187500.00, 187500.00, 187500.00, 187500.00, 187500.00, 187500.00, 0.128, 0.888, -0.490, 02:43:51.228
215, 23046.64, 8002.91, 187500.00, 187500.00, 187500.00, 187500.00, 187500.00, 187500.00, 0.000, 0.000, 0.000, 02:43:51.228
216, 23173.95, 8001.66, 187500.00, 187500.00, 187500.00, 187500.00, 187500.00, 187500.00, 0.000, 0.000, 0.000, 02:43:51.228
217, 23318.88, 7992.78, 187500.00, 187500.00, 187500.00, 187500.00, 187500.00, 187500.00, 0.000, 0.000, 0.000, 02:43:51.228
218, 23520.74, 7991.53, 187500.00, 187500.00, 187500.00, 187500.00, 187500.00, 187500.00, 0.000, 0.000, 0.000, 02:43:51.228
219, 23749.71, 8014.69, 187500.00, 187500.00, 187500.00, 187500.00, 187500.00, 187500.00, 0.000, 0.000, 0.000, 02:43:51.229
220, 23946.85, 8003.18, 187500.00, 187500.00, 187500.00, 187500.00, 187500.00, 187500.00, 0.000, 0.000, 0.000, 02:43:51.229
221, 24061.74, 7998.24, 187500.00, 187500.00, 187500.00, 187500.00, 187500.00, 187500.00, 0.000, 0.000, 0.000, 02:43:51.229
222, 24145.45, 7990.61, 187500.00, 187500.00, 187500.00, 187500.00, 187500.00, 187500.00, 0.000, 0.000, 0.000, 02:43:51.229
223, 24264.29, 8002.24, 187500.00, 187500.00, 187500.00, 187500.00, 187500.00, 187500.00, 0.000, 0.000, 0.000, 02:43:51.229
224, 24396.48, 8005.30, 187500.00, 187500.00, 187500.00, 187500.00, 187500.00, 187500.00, 0.130, 0.884, -0.494, 02:43:51.229
225, 24493.91, 8006.75, 187500.00, 187500.00, 187500.00, 187500.00, 187500.00, 187500.00, 0.000, 0.000, 0.000, 02:43:51.229
226, 24589.11, 7977.69, 187500.00, 187500.00, 187500.00, 187500.00, 187500.00, 187500.00, 0.000, 0.000, 0.000, 02:43:51.230
227, 24714.86, 7984.71, 187500.00, 187500.00, 187500.00, 187500.00, 187500.00, 187500.00, 0.000, 0.000, 0.000, 02:43:51.230
228, 24844.54, 8015.65, 187500.00, 187500.00, 187500.00, 187500.00, 187500.00, 187500.00, 0.000, 0.000, 0.000, 02:43:51.230
229, 24982.70, 8018.31, 187500.00, 187500.00, 187500.00, 187500.00, 187500.00, 187500.00, 0.000, 0.000, 0.000, 02:43:51.230
230, 25129.64, 7999.11, 187500.00, 187500.00, 187500.00, 187500.00, 187500.00, 187500.00, 0.000, 0.000, 0.000, 02:43:51.230
231, 25278.44, 8019.45, 187500.00, 187500.00, 187500.00, 187500.00, 187500.00, 187500.00, 0.000, 0.000, 0.000, 02:43:51.230
232, 25465.81, 8016.30, 187500.00, 187500.00, 187500.00, 187500.00, 187500.00, 187500.00, 0.000, 0.000, 0.000, 02:43:51.230
233, 25709.38, 8009.55, 187500.00, 187500.00, 187500.00, 187500.00, 187500.00, 187500.00, 0.000, 0.000, 0.000, 02:43:51.230
234, 25891.43, 7958.20, 187500.00, 187500.00, 187500.00, 187500.00, 187500.00, 187500.00, 0.132, 0.884, -0.500, 02:43:51.231
235, 25995.05, 7994.66, 187500.00, 187500.00, 187500.00, 187500.00, 187500.00, 187500.00, 0.000, 0.000, 0.000, 02:43:51.231
236, 26091.99, 8023.43, 187500.00, 187500.00, 187500.00, 187500.00, 187500.00, 187500.00, 0.000, 0.000, 0.000, 02:43:51.231
237, 26210.17, 8011.47, 187500.00, 187500.00, 187500.00, 187500.00, 187500.00, 187500.00, 0.000, 0.000, 0.000, 02:43:51.231
238, 26336.97, 7990.95, 187500.00, 187500.00, 187500.00, 187500.00, 187500.00, 187500.00, 0.000, 0.000, 0.000, 02:43:51.231
239, 26440.50, 7986.57, 187500.00, 187500.00, 187500.00, 187500.00, 187500.00, 187500.00, 0.000, 0.000, 0.000, 02:43:51.231
240, 26549.67, 8010.40, 187500.00, 187500.00, 187500.00, 187500.00, 187500.00, 187500.00, 0.000, 0.000, 0.000, 02:43:51.231
241, 26668.27, 8023.90, 187500.00, 187500.00, 187500.00, 187500.00, 187500.00, 187500.00, 0.000, 0.000, 0.000, 02:43:51.231
242, 26782.82, 7999.71, 187500.00, 187500.00, 187500.00, 187500.00, 187500.00, 187500.00, 0.000, 0.000, 0.000, 02:43:51.232
243, 26898.49, 7991.35, 187500.00, 187500.00, 187500.00, 187500.00, 187500.00, 187500.00, 0.000, 0.000, 0.000, 02:43:51.232
244, 27048.76, 7999.53, 187500.00, 187500.00, 187500.00, 187500.00, 187500.00, 187500.00, 0.132, 0.888, -0.496, 02:43:51.232
245, 27204.11, 7992.13, 187500.00, 187500.00, 187500.00, 187500.00, 187500.00, 187500.00, 0.000, 0.000, 0.000, 02:43:51.232
246, 27360.86, 7965.63, 187500.00, 187500.00, 187500.00, 187500.00, 187500.00, 187500.00, 0.000, 0.000, 0.000, 02:43:51.232
247, 27521.05, 7948.86, 187500.00, 187500.00, 187500.00, 187500.00, 187500.00, 187500.00, 0.000, 0.000, 0.000, 02:43:51.232
248, 27653.49, 7981.72, 187500.00, 187500.00, 187500.00, 187500.00, 187500.00, 187500.00, 0.000, 0.000, 0.000, 02:43:51.232
249, 27742.09, 7997.36, 187500.00, 187500.00, 187500.00, 187500.00, 187500.00, 187500.00, 0.000, 0.000, 0.000, 02:43:51.232
250, 27866.86, 7989.81, 187500.00, 187500.00, 187500.00, 187500.00, 187500.00, 187500.00, 0.000, 0.000, 0.000, 02:43:51.233
251, 28043.35, 7973.09, 187500.00, 187500.00, 187500.00, 187500.00, 187500.00, 187500.00, 0.000, 0.000, 0.000, 02:43:51.233
252, 28256.20, 7982.88, 187500.00, 187500.00, 187500.00, 187500.00, 187500.00, 187500.00, 0.000, 0.000, 0.000, 02:43:51.233
253, 28480.61, 7982.41, 187500.00, 187500.00, 187500.00, 187500.00, 187500.00, 187500.00, 0.140, 0.890, -0.494, 02:43:51.233
254, 28639.49, 7975.30, 187500.00, 187500.00, 187500.00, 187500.00, 187500.00, 187500.00, 0.000, 0.000, 0.000, 02:43:51.233
255, 28756.59, 7998.12, 187500.00, 187500.00, 187500.00, 187500.00, 187500.00, 187500.00, 0.000, 0.000, 0.000, 02:43:51.233
0, 28905.86, 8015.42, 187500.00, 187500.00, 187500.00, 187500.00, 187500.00, 187500.00, 0.000, 0.000, 0.000, 02:43:51.234
1, 29131.23, 8018.17, 187500.00, 187500.00, 187500.00, 187500.00, 187500.00, 187500.00, 0.000, 0.000, 0.000, 02:43:51.234
2, 29289.46, 8004.41, 187500.00, 187500.00, 187500.00, 187500.00, 187500.00, 187500.00, 0.000, 0.000, 0.000, 02:43:51.234
3, 29350.72, 7971.75, 187500.00, 187500.00, 187500.00, 187500.00, 187500.00, 187500.00, 0.000, 0.000, 0.000, 02:43:51.234
4, 29401.19, 7987.15, 187500.00, 187500.00, 187500.00, 187500.00, 187500.00, 187500.00, 0.000, 0.000, 0.000, 02:43:51.234
5, 29461.70, 7998.53, 187500.00, 187500.00, 187500.00, 187500.00, 187500.00, 187500.00, 0.000, 0.000, 0.000, 02:43:51.234
6, 29521.20, 8007.78, 187500.00, 187500.00, 187500.00, 187500.00, 187500.00, 187500.00, 0.000, 0.000, 0.000, 02:43:51.234
7, 29577.41, 7991.82, 187500.00, 187500.00, 187500.00, 187500.00, 187500.00, 187500.00, 0.134, 0.886, -0.490, 02:43:51.235
8, 29644.40, 7979.75, 187500.00, 187500.00, 187500.00, 187500.00, 187500.00, 187500.00, 0.000, 0.000, 0.000, 02:43:51.235
9, 29713.38, 7996.56, 187500.00, 187500.00, 187500.00, 187500.00, 187500.00, 187500.00, 0.000, 0.000, 0.000, 02:43:51.235
10, 29758.53, 8004.41, 187500.00, 187500.00, 187500.00, 187500.00, 187500.00, 187500.00, 0.000, 0.000, 0.000, 02:43:51.235
11, 29787.28, 7995.73, 187500.00, 187500.00, 187500.00, 187500.00, 187500.00, 187500.00, 0.000, 0.000, 0.000, 02:43:51.235
12, 29827.37, 7981.87, 187500.00, 187500.00, 187500.00, 187500.00, 187500.00, 187500.00, 0.000, 0.000, 0.000, 02:43:51.235
13, 29872.17, 7995.91, 187500.00, 187500.00, 187500.00, 187500.00, 187500.00, 187500.00, 0.000, 0.000, 0.000, 02:43:51.235
14, 29905.65, 7992.56, 187500.00, 187500.00, 187500.00, 187500.00, 187500.00, 187500.00, 0.000, 0.000, 0.000, 02:43:51.235
15, 29933.90, 7976.94, 187500.00, 187500.00, 187500.00, 187500.00, 187500.00, 187500.00, 0.000, 0.000, 0.000, 02:43:51.236
16, 29939.96, 7973.65, 187500.00, 187500.00, 187500.00, 187500.00, 187500.00, 187500.00, 0.000, 0.000, 0.000, 02:43:51.236
17, 29951.98, 8005.41, 187500.00, 187500.00, 187500.00, 187500.00, 187500.00, 187500.00, 0.132, 0.890, -0.484, 02:43:51.236
18, 29963.92, 8018.58, 187500.00, 187500.00, 187500.00, 187500.00, 187500.00, 187500.00, 0.000, 0.000, 0.000, 02:43:51.236
19, 29975.88, 8006.62, 187500.00, 187500.00, 187500.00, 187500.00, 187500.00, 187500.00, 0.000, 0.000, 0.000, 02:43:51.236
20, 29968.48, 7985.67, 187500.00, 187500.00, 187500.00, 187500.00, 187500.00, 187500.00, 0.000, 0.000, 0.000, 02:43:51.236
21, 29975.97, 7996.54, 187500.00, 187500.00, 187500.00, 187500.00, 187500.00, 187500.00, 0.000, 0.000, 0.000, 02:43:51.236
22, 30002.10, 8013.30, 187500.00, 187500.00, 187500.00, 187500.00, 187500.00, 187500.00, 0.000, 0.000, 0.000, 02:43:51.237
23, 30018.95, 7989.05, 187500.00, 187500.00, 187500.00, 187500.00, 187500.00, 187500.00, 0.000, 0.000, 0.000, 02:43:51.237
24, 30003.42, 7962.72, 187500.00, 187500.00, 187500.00, 187500.00, 187500.00, 187500.00, 0.000, 0.000, 0.000, 02:43:51.237
25, 30003.84, 7991.46, 187500.00, 187500.00, 187500.00, 187500.00, 187500.00, 187500.00, 0.000, 0.000, 0.000, 02:43:51.237
26, 30030.84, 8009.61, 187500.00, 187500.00, 187500.00, 187500.00, 187500.00, 187500.00, 0.000, 0.000, 0.000, 02:43:51.237
27, 30063.16, 8011.78, 187500.00, 187500.00, 187500.00, 187500.00, 187500.00, 187500.00, 0.132, 0.888, -0.482, 02:43:51.237
28, 30066.40, 7973.52, 187500.00, 187500.00, 187500.00, 187500.00, 187500.00, 187500.00, 0.000, 0.000, 0.000, 02:43:51.242
29, 30040.12, 7977.90, 187500.00, 187500.00, 187500.00, 187500.00, 187500.00, 187500.00, 0.000, 0.000, 0.000, 02:43:51.242
30, 30063.23, 8003.44, 187500.00, 187500.00, 187500.00, 187500.00, 187500.00, 187500.00, 0.000, 0.000, 0.000, 02:43:51.242
31, 30077.69, 7997.86, 187500.00, 187500.00, 187500.00, 187500.00, 187500.00, 187500.00, 0.000, 0.000, 0.000, 02:43:51.242
32, 30091.08, 7985.14, 187500.00, 187500.00, 187500.00, 187500.00, 187500.00, 187500.00, 0.000, 0.000, 0.000, 02:43:51.242
33, 30094.23, 7989.99, 187500.00, 187500.00, 187500.00, 187500.00, 187500.00, 187500.00, 0.000, 0.000, 0.000, 02:43:51.242
34, 30118.17, 8020.34, 187500.00, 187500.00, 187500.00, 187500.00, 187500.00, 187500.00, 0.000, 0.000, 0.000, 02:43:51.242
35, 30124.88, 8020.01, 187500.00, 187500.00, 187500.00, 187500.00, 187500.00, 187500.00, 0.000, 0.000, 0.000, 02:43:51.242
36, 30108.89, 8001.25, 187500.00, 187500.00, 187500.00, 187500.00, 187500.00, 187500.00, 0.000, 0.000, 0.000, 02:43:51.243
37, 30101.18, 7992.98, 187500.00, 187500.00, 187500.00, 187500.00, 187500.00, 187500.00, 0.134, 0.888, -0.480, 02:43:51.243
38, 30124.47, 8015.02, 187500.00, 187500.00, 187500.00, 187500.00, 187500.00, 187500.00, 0.000, 0.000, 0.000, 02:43:51.243
39, 30129.55, 8034.13, 187500.00, 187500.00, 187500.00, 187500.00, 187500.00, 187500.00, 0.000, 0.000, 0.000, 02:43:51.243
40, 30123.24, 8035.07, 187500.00, 187500.00, 187500.00, 187500.00, 187500.00, 187500.00, 0.000, 0.000, 0.000, 02:43:51.243
41, 30116.09, 8016.43, 187500.00, 187500.00, 187500.00, 187500.00, 187500.00, 187500.00, 0.000, 0.000, 0.000, 02:43:51.243
42, 30136.77, 8024.03, 187500.00, 187500.00, 187500.00, 187500.00, 187500.00, 187500.00, 0.000, 0.000, 0.000, 02:43:51.243
43, 30155.74, 8054.65, 187500.00, 187500.00, 187500.00, 187500.00, 187500.00, 187500.00, 0.000, 0.000, 0.000, 02:43:51.243
44, 30149.69, 8050.38, 187500.00, 187500.00, 187500.00, 187500.00, 187500.00, 187500.00, 0.000, 0.000, 0.000, 02:43:51.244
45, 30119.69, 8021.42, 187500.00, 187500.00, 187500.00, 187500.00, 187500.00, 187500.00, 0.000, 0.000, 0.000, 02:43:51.244
46, 30139.78, 8031.18, 187500.00, 187500.00, 187500.00, 187500.00, 187500.00, 187500.00, 0.000, 0.000, 0.000, 02:43:51.244
47, 30146.31, 8033.75, 187500.00, 187500.00, 187500.00, 187500.00, 187500.00, 187500.00, 0.136, 0.892, -0.482, 02:43:51.244
48, 30150.11, 8037.11, 187500.00, 187500.00, 187500.00, 187500.00, 187500.00, 187500.00, 0.000, 0.000, 0.000, 02:43:51.244
49, 30136.39, 8041.38, 187500.00, 187500.00, 187500.00, 187500.00, 187500.00, 187500.00, 0.000, 0.000, 0.000, 02:43:51.244
50, 30150.89, 8055.05, 187500.00, 187500.00, 187500.00, 187500.00, 187500.00, 187500.00, 0.000, 0.000, 0.000, 02:43:51.244
51, 30171.23, 8071.17, 187500.00, 187500.00, 187500.00, 187500.00, 187500.00, 187500.00, 0.000, 0.000, 0.000, 02:43:51.244
52, 30158.04, 8054.61, 187500.00, 187500.00, 187500.00, 187500.00, 187500.00, 187500.00, 0.000, 0.000, 0.000, 02:43:51.244
53, 30137.04, 8032.23, 187500.00, 187500.00, 187500.00, 187500.00, 187500.00, 187500.00, 0.000, 0.000, 0.000, 02:43:51.244
54, 30141.66, 8035.30, 187500.00, 187500.00, 187500.00, 187500.00, 187500.00, 187500.00, 0.000, 0.000, 0.000, 02:43:51.245
55, 30155.99, 8044.68, 187500.00, 187500.00, 187500.00, 187500.00, 187500.00, 187500.00, 0.000, 0.000, 0.000, 02:43:51.245
56, 30151.79, 8046.63, 187500.00, 187500.00, 187500.00, 187500.00, 187500.00, 187500.00, 0.140, 0.892, -0.490, 02:43:51.245
57, 30139.87, 8019.38, 187500.00, 187500.00, 187500.00, 187500.00, 187500.00, 187500.00, 0.000, 0.000, 0.000, 02:43:51.245
58, 30137.04, 8021.06, 187500.00, 187500.00, 187500.00, 187500.00, 187500.00, 187500.00, 0.000, 0.000, 0.000, 02:43:51.245
59, 30160.06, 8044.12, 187500.00, 187500.00, 187500.00, 187500.00, 187500.00, 187500.00, 0.000, 0.000, 0.000, 02:43:51.245
60, 30151.12, 8046.02, 187500.00, 187500.00, 187500.00, 187500.00, 187500.00, 187500.00, 0.000, 0.000, 0.000, 02:43:51.245
61, 30125.72, 8034.65, 187500.00, 187500.00, 187500.00, 187500.00, 187500.00, 187500.00, 0.000, 0.000, 0.000, 02:43:51.245
62, 30116.72, 8024.32, 187500.00, 187500.00, 187500.00, 187500.00, 187500.00, 187500.00, 0.000, 0.000, 0.000, 02:43:51.245
63, 30148.99, 8042.87, 187500.00, 187500.00, 187500.00, 187500.00, 187500.00, 187500.00, 0.000, 0.000, 0.000, 02:43:51.246
64, 30150.33, 8044.97, 187500.00, 187500.00, 187500.00, 187500.00, 187500.00, 187500.00, 0.000, 0.000, 0.000, 02:43:51.246
65, 30137.33, 8035.85, 187500.00, 187500.00, 187500.00, 187500.00, 187500.00, 187500.00, 0.000, 0.000, 0.000, 02:43:51.246
66, 30126.64, 8037.22, 187500.00, 187500.00, 187500.00, 187500.00, 187500.00, 187500.00, 0.138, 0.890, -0.492, 02:43:51.246
67, 30156.32, 8053.49, 187500.00, 187500.00, 187500.00, 187500.00, 187500.00, 187500.00, 0.000, 0.000, 0.000, 02:43:51.246
68, 30155.90, 8061.51, 187500.00, 187500.00, 187500.00, 187500.00, 187500.00, 187500.00, 0.000, 0.000, 0.000, 02:43:51.246
69, 30140.86, 8040.84, 187500.00, 187500.00, 187500.00, 187500.00, 187500.00, 187500.00, 0.000, 0.000, 0.000, 02:43:51.246
70, 30125.28, 8028.39, 187500.00, 187500.00, 187500.00, 187500.00, 187500.00, 187500.00, 0.000, 0.000, 0.000, 02:43:51.246
71, 30149.06, 8060.37, 187500.00, 187500.00, 187500.00, 187500.00, 187500.00, 187500.00, 0.000, 0.000, 0.000, 02:43:51.246
72, 30168.39, 8064.55, 187500.00, 187500.00, 187500.00, 187500.00, 187500.00, 187500.00, 0.000, 0.000, 0.000, 02:43:51.246
73, 30157.15, 8049.11, 187500.00, 187500.00, 187500.00, 187500.00, 187500.00, 187500.00, 0.000, 0.000, 0.000, 02:43:51.247
74, 30129.21, 8033.71, 187500.00, 187500.00, 187500.00, 187500.00, 187500.00, 187500.00, 0.000, 0.000, 0.000, 02:43:51.707
75, 30134.53, 8051.17, 187500.00, 187500.00, 187500.00, 187500.00, 187500.00, 187500.00, 0.000, 0.000, 0.000, 02:43:51.707
76, 30158.94, 8077.65, 187500.00, 187500.00, 187500.00, 187500.00, 187500.00, 187500.00, 0.136, 0.888, -0.488, 02:43:51.707
77, 30172.48, 8070.97, 187500.00, 187500.00, 187500.00, 187500.00, 187500.00, 187500.00, 0.000, 0.000, 0.000, 02:43:51.707
78, 30154.36, 8048.59, 187500.00, 187500.00, 187500.00, 187500.00, 187500.00, 187500.00, 0.000, 0.000, 0.000, 02:43:51.707
79, 30158.40, 8046.69, 187500.00, 187500.00, 187500.00, 187500.00, 187500.00, 187500.00, 0.000, 0.000, 0.000, 02:43:51.707
80, 30175.90, 8054.81, 187500.00, 187500.00, 187500.00, 187500.00, 187500.00, 187500.00, 0.000, 0.000, 0.000, 02:43:51.708
81, 30176.11, 8076.13, 187500.00, 187500.00, 187500.00, 187500.00, 187500.00, 187500.00, 0.000, 0.000, 0.000, 02:43:51.708
82, 30153.80, 8045.33, 187500.00, 187500.00, 187500.00, 187500.00, 187500.00, 187500.00, 0.000, 0.000, 0.000, 02:43:51.708
83, 30133.48, 8027.00, 187500.00, 187500.00, 187500.00, 187500.00, 187500.00, 187500.00, 0.000, 0.000, 0.000, 02:43:51.708
84, 30173.09, 8055.59, 187500.00, 187500.00, 187500.00, 187500.00, 187500.00, 187500.00, 0.000, 0.000, 0.000, 02:43:51.708
85, 30169.87, 8061.13, 187500.00, 187500.00, 187500.00, 187500.00, 187500.00, 187500.00, 0.000, 0.000, 0.000, 02:43:51.709
86, 30147.29, 8057.60, 187500.00, 187500.00, 187500.00, 187500.00, 187500.00, 187500.00, 0.130, 0.882, -0.490, 02:43:51.709
87, 30129.73, 8032.73, 187500.00, 187500.00, 187500.00, 187500.00, 187500.00, 187500.00, 0.000, 0.000, 0.000, 02:43:51.709
88, 30167.16, 8065.76, 187500.00, 187500.00, 187500.00, 187500.00, 187500.00, 187500.00, 0.000, 0.000, 0.000, 02:43:51.709
89, 30175.21, 8067.08, 187500.00, 187500.00, 187500.00, 187500.00, 187500.00, 187500.00, 0.000, 0.000, 0.000, 02:43:51.709
90, 30158.63, 8049.20, 187500.00, 187500.00, 187500.00, 187500.00, 187500.00, 187500.00, 0.000, 0.000, 0.000, 02:43:51.709
91, 30130.66, 8019.72, 187500.00, 187500.00, 187500.00, 187500.00, 187500.00, 187500.00, 0.000, 0.000, 0.000, 02:43:51.709
92, 30162.49, 8052.75, 187500.00, 187500.00, 187500.00, 187500.00, 187500.00, 187500.00, 0.000, 0.000, 0.000, 02:43:51.709
93, 30173.74, 8051.05, 187500.00, 187500.00, 187500.00, 187500.00, 187500.00, 187500.00, 0.000, 0.000, 0.000, 02:43:51.709
94, 30154.87, 8038.09, 187500.00, 187500.00, 187500.00, 187500.00, 187500.00, 187500.00, 0.000, 0.000, 0.000, 02:43:51.709
95, 30132.68, 8024.48, 187500.00, 187500.00, 187500.00, 187500.00, 187500.00, 187500.00, 0.000, 0.000, 0.000, 02:43:51.709
96, 30154.47, 8048.04, 187500.00, 187500.00, 187500.00, 187500.00, 187500.00, 187500.00, 0.126, 0.890, -0.494, 02:43:51.709
97, 30156.66, 8047.10, 187500.00, 187500.00, 187500.00, 187500.00, 187500.00, 187500.00, 0.000, 0.000, 0.000, 02:43:51.710
98, 30149.13, 8030.76, 187500.00, 187500.00, 187500.00, 187500.00, 187500.00, 187500.00, 0.000, 0.000, 0.000, 02:43:51.710
99, 30123.04, 8011.60, 187500.00, 187500.00, 187500.00, 187500.00, 187500.00, 187500.00, 0.000, 0.000, 0.000, 02:43:51.710
100, 30137.86, 8026.96, 187500.00, 187500.00, 187500.00, 187500.00, 187500.00, 187500.00, 0.000, 0.000, 0.000, 02:43:51.710
101, 30163.21, 8060.80, 187500.00, 187500.00, 187500.00, 187500.00, 187500.00, 187500.00, 0.000, 0.000, 0.000, 02:43:51.710
102, 30154.94, 8058.12, 187500.00, 187500.00, 187500.00, 187500.00, 187500.00, 187500.00, 0.000, 0.000, 0.000, 02:43:51.711
103, 30131.78, 8027.61, 187500.00, 187500.00, 187500.00, 187500.00, 187500.00, 187500.00, 0.000, 0.000, 0.000, 02:43:51.711
104, 30137.06, 8016.03, 187500.00, 187500.00, 187500.00, 187500.00, 187500.00, 187500.00, 0.000, 0.000, 0.000, 02:43:51.711
105, 30160.97, 8051.34, 187500.00, 187500.00, 187500.00, 187500.00, 187500.00, 187500.00, 0.000, 0.000, 0.000, 02:43:51.711
106, 30161.69, 8059.26, 187500.00, 187500.00, 187500.00, 187500.00, 187500.00, 187500.00, 0.128, 0.890, -0.490, 02:43:51.711
107, 30149.87, 8045.31, 187500.00, 187500.00, 187500.00, 187500.00, 187500.00, 187500.00, 0.000, 0.000, 0.000, 02:43:51.711
108, 30145.84, 8037.33, 187500.00, 187500.00, 187500.00, 187500.00, 187500.00, 187500.00, 0.000, 0.000, 0.000, 02:43:51.711
109, 30162.85, 8052.89, 187500.00, 187500.00, 187500.00, 187500.00, 187500.00, 187500.00, 0.000, 0.000, 0.000, 02:43:51.711
110, 30162.27, 8044.35, 187500.00, 187500.00, 187500.00, 187500.00, 187500.00, 187500.00, 0.000, 0.000, 0.000, 02:43:51.711
111, 30152.26, 8032.73, 187500.00, 187500.00, 187500.00, 187500.00, 187500.00, 187500.00, 0.000, 0.000, 0.000, 02:43:51.711
112, 30141.57, 8025.42, 187500.00, 187500.00, 187500.00, 187500.00, 187500.00, 187500.00, 0.000, 0.000, 0.000, 02:43:51.712
113, 30169.76, 8054.96, 187500.00, 187500.00, 187500.00, 187500.00, 187500.00, 187500.00, 0.000, 0.000, 0.000, 02:43:51.712
114, 30166.16, 8046.85, 187500.00, 187500.00, 187500.00, 187500.00, 187500.00, 187500.00, 0.000, 0.000, 0.000, 02:43:51.712
115, 30152.93, 8042.43, 187500.00, 187500.00, 187500.00, 187500.00, 187500.00, 187500.00, 0.000, 0.000, 0.000, 02:43:51.712
116, 30134.64, 8026.98, 187500.00, 187500.00, 187500.00, 187500.00, 187500.00, 187500.00, 0.132, 0.888, -0.492, 02:43:51.712
117, 30162.52, 8044.79, 187500.00, 187500.00, 187500.00, 187500.00, 187500.00, 187500.00, 0.000, 0.000, 0.000, 02:43:51.712
118, 30168.69, 8048.37, 187500.00, 187500.00, 187500.00, 187500.00, 187500.00, 187500.00, 0.000, 0.000, 0.000, 02:43:51.712
119, 30154.85, 8035.32, 187500.00, 187500.00, 187500.00, 187500.00, 187500.00, 187500.00, 0.000, 0.000, 0.000, 02:43:51.712
120, 30119.94, 8006.69, 187500.00, 187500.00, 187500.00, 187500.00, 187500.00, 187500.00, 0.000, 0.000, 0.000, 02:43:51.712
121, 30145.21, 8016.61, 187500.00, 187500.00, 187500.00, 187500.00, 187500.00, 187500.00, 0.000, 0.000, 0.000, 02:43:51.712
122, 30155.45, 8026.40, 187500.00, 187500.00, 187500.00, 187500.00, 187500.00, 187500.00, 0.000, 0.000, 0.000, 02:43:51.713
123, 30157.96, 8051.68, 187500.00, 187500.00, 187500.00, 187500.00, 187500.00, 187500.00, 0.000, 0.000, 0.000, 02:43:51.713
124, 30147.83, 8031.45, 187500.00, 187500.00, 187500.00, 187500.00, 187500.00, 187500.00, 0.000, 0.000, 0.000, 02:43:51.713
125, 30151.34, 8033.46, 187500.00, 187500.00, 187500.00, 187500.00, 187500.00, 187500.00, 0.130, 0.890, -0.494, 02:43:51.713
126, 30170.72, 8062.52, 187500.00, 187500.00, 187500.00, 187500.00, 187500.00, 187500.00, 0.000, 0.000, 0.000, 02:43:51.713
127, 30176.40, 8062.43, 187500.00, 187500.00, 187500.00, 187500.00, 187500.00, 187500.00, 0.000, 0.000, 0.000, 02:43:51.713
128, 30147.99, 8032.34, 187500.00, 187500.00, 187500.00, 187500.00, 187500.00, 187500.00, 0.000, 0.000, 0.000, 02:43:51.714
129, 30155.61, 8030.24, 187500.00, 187500.00, 187500.00, 187500.00, 187500.00, 187500.00, 0.000, 0.000, 0.000, 02:43:51.714
130, 30177.02, 8066.92, 187500.00, 187500.00, 187500.00, 187500.00, 187500.00, 187500.00, 0.000, 0.000, 0.000, 02:43:51.714
131, 30162.16, 8050.79, 187500.00, 187500.00, 187500.00, 187500.00, 187500.00, 187500.00, 0.000, 0.000, 0.000, 02:43:51.714
132, 30146.54, 8026.87, 187500.00, 187500.00, 187500.00, 187500.00, 187500.00, 187500.00, 0.000, 0.000, 0.000, 02:43:51.714
133, 30148.05, 8014.51, 187500.00, 187500.00, 187500.00, 187500.00, 187500.00, 187500.00, 0.000, 0.000, 0.000, 02:43:51.714
134, 30169.94, 8027.49, 187500.00, 187500.00, 187500.00, 187500.00, 187500.00, 187500.00, 0.000, 0.000, 0.000, 02:43:51.715
135, 30176.66, 8047.77, 187500.00, 187500.00, 187500.00, 187500.00, 187500.00, 187500.00, 0.134, 0.892, -0.490, 02:43:51.715
136, 30161.29, 8033.15, 187500.00, 187500.00, 187500.00, 187500.00, 187500.00, 187500.00, 0.000, 0.000, 0.000, 02:43:51.715
137, 30141.30, 8016.32, 187500.00, 187500.00, 187500.00, 187500.00, 187500.00, 187500.00, 0.000, 0.000, 0.000, 02:43:51.715
138, 30169.06, 8038.45, 187500.00, 187500.00, 187500.00, 187500.00, 187500.00, 187500.00, 0.000, 0.000, 0.000, 02:43:51.715
139, 30173.60, 8044.66, 187500.00, 187500.00, 187500.00, 187500.00, 187500.00, 187500.00, 0.000, 0.000, 0.000, 02:43:51.715
140, 30156.73, 8025.28, 187500.00, 187500.00, 187500.00, 187500.00, 187500.00, 187500.00, 0.000, 0.000, 0.000, 02:43:51.715
141, 30142.04, 8006.66, 187500.00, 187500.00, 187500.00, 187500.00, 187500.00, 187500.00, 0.000, 0.000, 0.000, 02:43:51.715
142, 30169.24, 8018.89, 187500.00, 187500.00, 187500.00, 187500.00, 187500.00, 187500.00, 0.000, 0.000, 0.000, 02:43:51.716
143, 30176.35, 8034.00, 187500.00, 187500.00, 187500.00, 187500.00, 187500.00, 187500.00, 0.000, 0.000, 0.000, 02:43:51.716
144, 30157.98, 8009.81, 187500.00, 187500.00, 187500.00, 187500.00, 187500.00, 187500.00, 0.000, 0.000, 0.000, 02:43:51.716
145, 30146.40, 8009.99, 187500.00, 187500.00, 187500.00, 187500.00, 187500.00, 187500.00, 0.136, 0.890, -0.486, 02:43:51.716
146, 30167.86, 8057.09, 187500.00, 187500.00, 187500.00, 187500.00, 187500.00, 187500.00, 0.000, 0.000, 0.000, 02:43:51.716
147, 30182.01, 8061.85, 187500.00, 187500.00, 187500.00, 187500.00, 187500.00, 187500.00, 0.000, 0.000, 0.000, 02:43:51.716
148, 30173.09, 8053.22, 187500.00, 187500.00, 187500.00, 187500.00, 187500.00, 187500.00, 0.000, 0.000, 0.000, 02:43:51.716
149, 30144.30, 8027.76, 187500.00, 187500.00, 187500.00, 187500.00, 187500.00, 187500.00, 0.000, 0.000, 0.000, 02:43:51.716
150, 30153.93, 8020.41, 187500.00, 187500.00, 187500.00, 187500.00, 187500.00, 187500.00, 0.000, 0.000, 0.000, 02:43:51.716
151, 30178.90, 8040.30, 187500.00, 187500.00, 187500.00, 187500.00, 187500.00, 187500.00, 0.000, 0.000, 0.000, 02:43:51.716
152, 30182.97, 8037.28, 187500.00, 187500.00, 187500.00, 187500.00, 187500.00, 187500.00, 0.000, 0.000, 0.000, 02:43:51.717
153, 30156.62, 8023.14, 187500.00, 187500.00, 187500.00, 187500.00, 187500.00, 187500.00, 0.000, 0.000, 0.000, 02:43:51.717
154, 30152.64, 8019.67, 187500.00, 187500.00, 187500.00, 187500.00, 187500.00, 187500.00, 0.000, 0.000, 0.000, 02:43:51.717
155, 30184.76, 8054.38, 187500.00, 187500.00, 187500.00, 187500.00, 187500.00, 187500.00, 0.130, 0.888, -0.490, 02:43:51.717
156, 30177.40, 8046.56, 187500.00, 187500.00, 187500.00, 187500.00, 187500.00, 187500.00, 0.000, 0.000, 0.000, 02:43:51.717
157, 30165.89, 8034.98, 187500.00, 187500.00, 187500.00, 187500.00, 187500.00, 187500.00, 0.000, 0.000, 0.000, 02:43:51.717
158, 30161.85, 8021.46, 187500.00, 187500.00, 187500.00, 187500.00, 187500.00, 187500.00, 0.000, 0.000, 0.000, 02:43:51.717
159, 30174.99, 8033.64, 187500.00, 187500.00, 187500.00, 187500.00, 187500.00, 187500.00, 0.000, 0.000, 0.000, 02:43:51.717
160, 30172.02, 8024.77, 187500.00, 187500.00, 187500.00, 187500.00, 187500.00, 187500.00, 0.000, 0.000, 0.000, 02:43:51.717
161, 30159.14, 8006.10, 187500.00, 187500.00, 187500.00, 187500.00, 187500.00, 187500.00, 0.000, 0.000, 0.000, 02:43:51.717
162, 30149.17, 8001.19, 187500.00, 187500.00, 187500.00, 187500.00, 187500.00, 187500.00, 0.000, 0.000, 0.000, 02:43:51.718
163, 30174.14, 8038.45, 187500.00, 187500.00, 187500.00, 187500.00, 187500.00, 187500.00, 0.000, 0.000, 0.000, 02:43:51.718
164, 30173.36, 8049.82, 187500.00, 187500.00, 187500.00, 187500.00, 187500.00, 187500.00, 0.000, 0.000, 0.000, 02:43:51.718
165, 30155.10, 8031.03, 187500.00, 187500.00, 187500.00, 187500.00, 187500.00, 187500.00, 0.130, 0.892, -0.492, 02:43:51.718
166, 30136.77, 8000.67, 187500.00, 187500.00, 187500.00, 187500.00, 187500.00, 187500.00, 0.000, 0.000, 0.000, 02:43:51.718
167, 30155.61, 8013.48, 187500.00, 187500.00, 187500.00, 187500.00, 187500.00, 187500.00, 0.000, 0.000, 0.000, 02:43:51.718
168, 30164.88, 8015.74, 187500.00, 187500.00, 187500.00, 187500.00, 187500.00, 187500.00, 0.000, 0.000, 0.000, 02:43:51.718
169, 30168.13, 8020.19, 187500.00, 187500.00, 187500.00, 187500.00, 187500.00, 187500.00, 0.000, 0.000, 0.000, 02:43:51.718
170, 30140.23, 8017.79, 187500.00, 187500.00, 187500.00, 187500.00, 187500.00, 187500.00, 0.000, 0.000, 0.000, 02:43:51.718
171, 30147.23, 8021.59, 187500.00, 187500.00, 187500.00, 187500.00, 187500.00, 187500.00, 0.000, 0.000, 0.000, 02:43:51.719
172, 30172.71, 8037.78, 187500.00, 187500.00, 187500.00, 187500.00, 187500.00, 187500.00, 0.000, 0.000, 0.000, 02:43:51.719
173, 30168.51, 8027.65, 187500.00, 187500.00, 187500.00, 187500.00, 187500.00, 187500.00, 0.000, 0.000, 0.000, 02:43:51.719
174, 30141.75, 7996.34, 187500.00, 187500.00, 187500.00, 187500.00, 187500.00, 187500.00, 0.000, 0.000, 0.000, 02:43:51.719
175, 30151.72, 8014.02, 187500.00, 187500.00, 187500.00, 187500.00, 187500.00, 187500.00, 0.138, 0.888, -0.490, 02:43:51.719
176, 30174.09, 8043.92, 187500.00, 187500.00, 187500.00, 187500.00, 187500.00, 187500.00, 0.000, 0.000, 0.000, 02:43:51.719
177, 30169.69, 8044.57, 187500.00, 187500.00, 187500.00, 187500.00, 187500.00, 187500.00, 0.000, 0.000, 0.000, 02:43:51.719
178, 30138.55, 8012.25, 187500.00, 187500.00, 187500.00, 187500.00, 187500.00, 187500.00, 0.000, 0.000, 0.000, 02:43:51.719
179, 30143.61, 7996.05, 187500.00, 187500.00, 187500.00, 187500.00, 187500.00, 187500.00, 0.000, 0.000, 0.000, 02:43:51.719
180, 30168.95, 8015.58, 187500.00, 187500.00, 187500.00, 187500.00, 187500.00, 187500.00, 0.000, 0.000, 0.000, 02:43:51.719
181, 30165.33, 8010.64, 187500.00, 187500.00, 187500.00, 187500.00, 187500.00, 187500.00, 0.000, 0.000, 0.000, 02:43:51.719
182, 30155.74, 8016.25, 187500.00, 187500.00, 187500.00, 187500.00, 187500.00, 187500.00, 0.000, 0.000, 0.000, 02:43:51.720
183, 30149.93, 8008.99, 187500.00, 187500.00, 187500.00, 187500.00, 187500.00, 187500.00, 0.000, 0.000, 0.000, 02:43:51.720
184, 30178.50, 8026.27, 187500.00, 187500.00, 187500.00, 187500.00, 187500.00, 187500.00, 0.132, 0.888, -0.494, 02:43:51.720
185, 30170.00, 8013.84, 187500.00, 187500.00, 187500.00, 187500.00, 187500.00, 187500.00, 0.000, 0.000, 0.000, 02:43:51.720
186, 30161.80, 8004.79, 187500.00, 187500.00, 187500.00, 187500.00, 187500.00, 187500.00, 0.000, 0.000, 0.000, 02:43:51.720
187, 30151.88, 7992.07, 187500.00, 187500.00, 187500.00, 187500.00, 187500.00, 187500.00, 0.000, 0.000, 0.000, 02:43:51.720
188, 30172.57, 8016.16, 187500.00, 187500.00, 187500.00, 187500.00, 187500.00, 187500.00, 0.000, 0.000, 0.000, 02:43:51.720
189, 30179.97, 8013.48, 187500.00, 187500.00, 187500.00, 187500.00, 187500.00, 187500.00, 0.000, 0.000, 0.000, 02:43:51.720
190, 30171.30, 8010.37, 187500.00, 187500.00, 187500.00, 187500.00, 187500.00, 187500.00, 0.000, 0.000, 0.000, 02:43:51.720
191, 30141.28, 8003.89, 187500.00, 187500.00, 187500.00, 187500.00, 187500.00, 187500.00, 0.000, 0.000, 0.000, 02:43:51.721
192, 30166.09, 8031.09, 187500.00, 187500.00, 187500.00, 187500.00, 187500.00, 187500.00, 0.000, 0.000, 0.000, 02:43:51.721
193, 30177.16, 8039.45, 187500.00, 187500.00, 187500.00, 187500.00, 187500.00, 187500.00, 0.000, 0.000, 0.000, 02:43:51.721
194, 30174.72, 8034.22, 187500.00, 187500.00, 187500.00, 187500.00, 187500.00, 187500.00, 0.134, 0.890, -0.492, 02:43:52.189
195, 30147.23, 8002.37, 187500.00, 187500.00, 187500.00, 187500.00, 187500.00, 187500.00, 0.000, 0.000, 0.000, 02:43:52.189
196, 30154.83, 8013.97, 187500.00, 187500.00, 187500.00, 187500.00, 187500.00, 187500.00, 0.000, 0.000, 0.000, 02:43:52.190
197, 30164.73, 8028.95, 187500.00, 187500.00, 187500.00, 187500.00, 187500.00, 187500.00, 0.000, 0.000, 0.000, 02:43:52.190
198, 30162.09, 8015.07, 187500.00, 187500.00, 187500.00, 187500.00, 187500.00, 187500.00, 0.000, 0.000, 0.000, 02:43:52.190
199, 30148.17, 7997.99, 187500.00, 187500.00, 187500.00, 187500.00, 187500.00, 187500.00, 0.000, 0.000, 0.000, 02:43:52.190
200, 30163.81, 8013.19, 187500.00, 187500.00, 187500.00, 187500.00, 187500.00, 187500.00, 0.000, 0.000, 0.000, 02:43:52.190
