%OpenBCI Raw EEG Data
%
%Sample Rate = 250.0 Hz
%First Column = SampleIndex
%Last Column = Timestamp 
%Other Columns = EEG data in microvolts followed by Accel Data (in G) interleaved with Aux Data
0, 0.00, 0.00, 0.00, 0.00, 0.00, 0.00, 0.00, 0.00, 0.206, 0.992, -0.090, 02:36:33.927
1, 29398.44, 8460.40, -187500.02, -187500.02, -187500.02, -187500.02, -187500.02, -187500.02, 0.000, 0.000, 0.000, 02:36:34.407
2, 29418.00, 8474.33, -187500.02, -187500.02, -187500.02, -187500.02, -187500.02, -187500.02, 0.000, 0.000, 0.000, 02:36:34.407
3, 29406.40, 8473.72, -187500.02, -187500.02, -187500.02, -187500.02, -187500.02, -187500.02, 0.000, 0.000, 0.000, 02:36:34.407
4, 29386.93, 8448.85, -187500.02, -187500.02, -187500.02, -187500.02, -187500.02, -187500.02, 0.000, 0.000, 0.000, 02:36:34.409
5, 29385.10, 8442.54, -187500.02, -187500.02, -187500.02, -187500.02, -187500.02, -187500.02, 0.000, 0.000, 0.000, 02:36:34.409
6, 29402.00, 8449.16, -187500.02, -187500.02, -187500.02, -187500.02, -187500.02, -187500.02, 0.000, 0.000, 0.000, 02:36:34.410
7, 29385.46, 8458.26, -187500.02, -187500.02, -187500.02, -187500.02, -187500.02, -187500.02, 0.208, 0.992, -0.084, 02:36:34.410
8, 29377.25, 8451.22, -187500.02, -187500.02, -187500.02, -187500.02, -187500.02, -187500.02, 0.000, 0.000, 0.000, 02:36:34.410
9, 29394.55, 8457.07, -187500.02, -187500.02, -187500.02, -187500.02, -187500.02, -187500.02, 0.000, 0.000, 0.000, 02:36:34.410
10, 29420.30, 8485.15, -187500.02, -187500.02, -187500.02, -187500.02, -187500.02, -187500.02, 0.000, 0.000, 0.000, 02:36:34.410
11, 29413.35, 8474.89, -187500.02, -187500.02, -187500.02, -187500.02, -187500.02, -187500.02, 0.000, 0.000, 0.000, 02:36:34.410
12, 29384.29, 8449.21, -187500.02, -187500.02, -187500.02, -187500.02, -187500.02, -187500.02, 0.000, 0.000, 0.000, 02:36:34.410
13, 29374.46, 8435.06, -187500.02, -187500.02, -187500.02, -187500.02, -187500.02, -187500.02, 0.000, 0.000, 0.000, 02:36:34.411
14, 29414.31, 8480.52, -187500.02, -187500.02, -187500.02, -187500.02, -187500.02, -187500.02, 0.000, 0.000, 0.000, 02:36:34.411
15, 29413.31, 8469.37, -187500.02, -187500.02, -187500.02, -187500.02, -187500.02, -187500.02, 0.000, 0.000, 0.000, 02:36:34.411
16, 29395.70, 8446.81, -187500.02, -187500.02, -187500.02, -187500.02, -187500.02, -187500.02, 0.000, 0.000, 0.000, 02:36:34.411
17, 29380.74, 8431.82, -187500.02, -187500.02, -187500.02, -187500.02, -187500.02, -187500.02, 0.210, 0.996, -0.088, 02:36:34.411
18, 29415.41, 8460.29, -187500.02, -187500.02, -187500.02, -187500.02, -187500.02, -187500.02, 0.000, 0.000, 0.000, 02:36:34.411
19, 29422.23, 8471.78, -187500.02, -187500.02, -187500.02, -187500.02, -187500.02, -187500.02, 0.000, 0.000, 0.000, 02:36:34.411
20, 29409.60, 8467.38, -187500.02, -187500.02, -187500.02, -187500.02, -187500.02, -187500.02, 0.000, 0.000, 0.000, 02:36:34.412
21, 29380.65, 8448.58, -187500.02, -187500.02, -187500.02, -187500.02, -187500.02, -187500.02, 0.000, 0.000, 0.000, 02:36:34.412
22, 29414.63, 8470.60, -187500.02, -187500.02, -187500.02, -187500.02, -187500.02, -187500.02, 0.000, 0.000, 0.000, 02:36:34.412
23, 29431.57, 8475.49, -187500.02, -187500.02, -187500.02, -187500.02, -187500.02, -187500.02, 0.000, 0.000, 0.000, 02:36:34.412
24, 29397.21, 8431.97, -187500.02, -187500.02, -187500.02, -187500.02, -187500.02, -187500.02, 0.000, 0.000, 0.000, 02:36:34.412
25, 29369.54, 8417.44, -187500.02, -187500.02, -187500.02, -187500.02, -187500.02, -187500.02, 0.000, 0.000, 0.000, 02:36:34.412
26, 29397.19, 8455.98, -187500.02, -187500.02, -187500.02, -187500.02, -187500.02, -187500.02, 0.000, 0.000, 0.000, 02:36:34.412
27, 29418.40, 8467.91, -187500.02, -187500.02, -187500.02, -187500.02, -187500.02, -187500.02, 0.220, 0.990, -0.086, 02:36:34.413
28, 29403.12, 8456.00, -187500.02, -187500.02, -187500.02, -187500.02, -187500.02, -187500.02, 0.000, 0.000, 0.000, 02:36:34.413
29, 29388.70, 8449.07, -187500.02, -187500.02, -187500.02, -187500.02, -187500.02, -187500.02, 0.000, 0.000, 0.000, 02:36:34.413
30, 29410.74, 8458.59, -187500.02, -187500.02, -187500.02, -187500.02, -187500.02, -187500.02, 0.000, 0.000, 0.000, 02:36:34.413
31, 29428.64, 8475.51, -187500.02, -187500.02, -187500.02, -187500.02, -187500.02, -187500.02, 0.000, 0.000, 0.000, 02:36:34.413
32, 29416.44, 8456.60, -187500.02, -187500.02, -187500.02, -187500.02, -187500.02, -187500.02, 0.000, 0.000, 0.000, 02:36:34.413
33, 29394.82, 8439.35, -187500.02, -187500.02, -187500.02, -187500.02, -187500.02, -187500.02, 0.000, 0.000, 0.000, 02:36:34.414
34, 29390.11, 8433.22, -187500.02, -187500.02, -187500.02, -187500.02, -187500.02, -187500.02, 0.000, 0.000, 0.000, 02:36:34.414
35, 29426.45, 8465.12, -187500.02, -187500.02, -187500.02, -187500.02, -187500.02, -187500.02, 0.000, 0.000, 0.000, 02:36:34.414
36, 29442.54, 8474.98, -187500.02, -187500.02, -187500.02, -187500.02, -187500.02, -187500.02, 0.000, 0.000, 0.000, 02:36:34.414
37, 29417.60, 8457.32, -187500.02, -187500.02, -187500.02, -187500.02, -187500.02, -187500.02, 0.214, 0.990, -0.084, 02:36:34.414
38, 29413.71, 8438.23, -187500.02, -187500.02, -187500.02, -187500.02, -187500.02, -187500.02, 0.000, 0.000, 0.000, 02:36:34.414
39, 29437.74, 8470.28, -187500.02, -187500.02, -187500.02, -187500.02, -187500.02, -187500.02, 0.000, 0.000, 0.000, 02:36:34.414
40, 29441.52, 8479.47, -187500.02, -187500.02, -187500.02, -187500.02, -187500.02, -187500.02, 0.000, 0.000, 0.000, 02:36:34.415
41, 29419.88, 8448.24, -187500.02, -187500.02, -187500.02, -187500.02, -187500.02, -187500.02, 0.000, 0.000, 0.000, 02:36:34.415
42, 29387.60, 8415.74, -187500.02, -187500.02, -187500.02, -187500.02, -187500.02, -187500.02, 0.000, 0.000, 0.000, 02:36:34.415
43, 29428.64, 8454.55, -187500.02, -187500.02, -187500.02, -187500.02, -187500.02, -187500.02, 0.000, 0.000, 0.000, 02:36:34.415
44, 29440.38, 8463.85, -187500.02, -187500.02, -187500.02, -187500.02, -187500.02, -187500.02, 0.000, 0.000, 0.000, 02:36:34.415
45, 29404.08, 8444.00, -187500.02, -187500.02, -187500.02, -187500.02, -187500.02, -187500.02, 0.000, 0.000, 0.000, 02:36:34.415
46, 29383.94, 8445.00, -187500.02, -187500.02, -187500.02, -187500.02, -187500.02, -187500.02, 0.000, 0.000, 0.000, 02:36:34.415
47, 29413.29, 8452.40, -187500.02, -187500.02, -187500.02, -187500.02, -187500.02, -187500.02, 0.212, 0.996, -0.078, 02:36:34.416
48, 29429.83, 8465.19, -187500.02, -187500.02, -187500.02, -187500.02, -187500.02, -187500.02, 0.000, 0.000, 0.000, 02:36:34.416
49, 29404.88, 8437.29, -187500.02, -187500.02, -187500.02, -187500.02, -187500.02, -187500.02, 0.000, 0.000, 0.000, 02:36:34.416
50, 29380.54, 8415.28, -187500.02, -187500.02, -187500.02, -187500.02, -187500.02, -187500.02, 0.000, 0.000, 0.000, 02:36:34.416
51, 29407.05, 8419.30, -187500.02, -187500.02, -187500.02, -187500.02, -187500.02, -187500.02, 0.000, 0.000, 0.000, 02:36:34.416
52, 29433.98, 8462.17, -187500.02, -187500.02, -187500.02, -187500.02, -187500.02, -187500.02, 0.000, 0.000, 0.000, 02:36:34.416
53, 29420.64, 8470.84, -187500.02, -187500.02, -187500.02, -187500.02, -187500.02, -187500.02, 0.000, 0.000, 0.000, 02:36:34.416
54, 29385.01, 8430.72, -187500.02, -187500.02, -187500.02, -187500.02, -187500.02, -187500.02, 0.000, 0.000, 0.000, 02:36:34.416
55, 29394.91, 8426.14, -187500.02, -187500.02, -187500.02, -187500.02, -187500.02, -187500.02, 0.000, 0.000, 0.000, 02:36:34.416
56, 29430.52, 8453.14, -187500.02, -187500.02, -187500.02, -187500.02, -187500.02, -187500.02, 0.000, 0.000, 0.000, 02:36:34.417
57, 29421.85, 8470.73, -187500.02, -187500.02, -187500.02, -187500.02, -187500.02, -187500.02, 0.212, 0.996, -0.084, 02:36:34.417
58, 29395.02, 8432.11, -187500.02, -187500.02, -187500.02, -187500.02, -187500.02, -187500.02, 0.000, 0.000, 0.000, 02:36:34.417
59, 29396.63, 8432.49, -187500.02, -187500.02, -187500.02, -187500.02, -187500.02, -187500.02, 0.000, 0.000, 0.000, 02:36:34.417
60, 29427.28, 8464.69, -187500.02, -187500.02, -187500.02, -187500.02, -187500.02, -187500.02, 0.000, 0.000, 0.000, 02:36:34.417
61, 29427.41, 8454.52, -187500.02, -187500.02, -187500.02, -187500.02, -187500.02, -187500.02, 0.000, 0.000, 0.000, 02:36:34.417
62, 29409.73, 8442.77, -187500.02, -187500.02, -187500.02, -187500.02, -187500.02, -187500.02, 0.000, 0.000, 0.000, 02:36:34.417
63, 29407.43, 8437.07, -187500.02, -187500.02, -187500.02, -187500.02, -187500.02, -187500.02, 0.000, 0.000, 0.000, 02:36:34.417
64, 29438.54, 8459.26, -187500.02, -187500.02, -187500.02, -187500.02, -187500.02, -187500.02, 0.000, 0.000, 0.000, 02:36:34.425
65, 29434.99, 8443.59, -187500.02, -187500.02, -187500.02, -187500.02, -187500.02, -187500.02, 0.000, 0.000, 0.000, 02:36:34.425
66, 29414.47, 8435.53, -187500.02, -187500.02, -187500.02, -187500.02, -187500.02, -187500.02, 0.000, 0.000, 0.000, 02:36:34.425
67, 29391.96, 8419.63, -187500.02, -187500.02, -187500.02, -187500.02, -187500.02, -187500.02, 0.210, 0.992, -0.080, 02:36:34.425
68, 29434.92, 8459.82, -187500.02, -187500.02, -187500.02, -187500.02, -187500.02, -187500.02, 0.000, 0.000, 0.000, 02:36:34.425
69, 29431.84, 8475.02, -187500.02, -187500.02, -187500.02, -187500.02, -187500.02, -187500.02, 0.000, 0.000, 0.000, 02:36:34.426
70, 29414.74, 8448.22, -187500.02, -187500.02, -187500.02, -187500.02, -187500.02, -187500.02, 0.000, 0.000, 0.000, 02:36:34.426
71, 29382.46, 8392.72, -187500.02, -187500.02, -187500.02, -187500.02, -187500.02, -187500.02, 0.000, 0.000, 0.000, 02:36:34.426
72, 29404.99, 8417.60, -187500.02, -187500.02, -187500.02, -187500.02, -187500.02, -187500.02, 0.000, 0.000, 0.000, 02:36:34.426
73, 29411.34, 8441.02, -187500.02, -187500.02, -187500.02, -187500.02, -187500.02, -187500.02, 0.000, 0.000, 0.000, 02:36:34.426
74, 29397.04, 8448.60, -187500.02, -187500.02, -187500.02, -187500.02, -187500.02, -187500.02, 0.000, 0.000, 0.000, 02:36:34.426
75, 29382.28, 8431.32, -187500.02, -187500.02, -187500.02, -187500.02, -187500.02, -187500.02, 0.000, 0.000, 0.000, 02:36:34.426
76, 29402.85, 8429.60, -187500.02, -187500.02, -187500.02, -187500.02, -187500.02, -187500.02, 0.206, 0.994, -0.086, 02:36:34.426
77, 29424.15, 8433.29, -187500.02, -187500.02, -187500.02, -187500.02, -187500.02, -187500.02, 0.000, 0.000, 0.000, 02:36:34.426
78, 29409.24, 8432.55, -187500.02, -187500.02, -187500.02, -187500.02, -187500.02, -187500.02, 0.000, 0.000, 0.000, 02:36:34.426
79, 29386.33, 8424.77, -187500.02, -187500.02, -187500.02, -187500.02, -187500.02, -187500.02, 0.000, 0.000, 0.000, 02:36:34.427
80, 29401.64, 8420.86, -187500.02, -187500.02, -187500.02, -187500.02, -187500.02, -187500.02, 0.000, 0.000, 0.000, 02:36:34.427
81, 29411.90, 8434.01, -187500.02, -187500.02, -187500.02, -187500.02, -187500.02, -187500.02, 0.000, 0.000, 0.000, 02:36:34.427
82, 29404.75, 8425.40, -187500.02, -187500.02, -187500.02, -187500.02, -187500.02, -187500.02, 0.000, 0.000, 0.000, 02:36:34.427
83, 29394.24, 8404.93, -187500.02, -187500.02, -187500.02, -187500.02, -187500.02, -187500.02, 0.000, 0.000, 0.000, 02:36:34.427
84, 29395.40, 8391.81, -187500.02, -187500.02, -187500.02, -187500.02, -187500.02, -187500.02, 0.000, 0.000, 0.000, 02:36:34.427
85, 29429.49, 8449.47, -187500.02, -187500.02, -187500.02, -187500.02, -187500.02, -187500.02, 0.000, 0.000, 0.000, 02:36:34.427
86, 29427.05, 8444.73, -187500.02, -187500.02, -187500.02, -187500.02, -187500.02, -187500.02, 0.206, 0.998, -0.088, 02:36:34.427
87, 29392.56, 8408.44, -187500.02, -187500.02, -187500.02, -187500.02, -187500.02, -187500.02, 0.000, 0.000, 0.000, 02:36:34.427
88, 29384.29, 8412.32, -187500.02, -187500.02, -187500.02, -187500.02, -187500.02, -187500.02, 0.000, 0.000, 0.000, 02:36:34.428
89, 29413.26, 8429.96, -187500.02, -187500.02, -187500.02, -187500.02, -187500.02, -187500.02, 0.000, 0.000, 0.000, 02:36:34.428
90, 29423.61, 8428.73, -187500.02, -187500.02, -187500.02, -187500.02, -187500.02, -187500.02, 0.000, 0.000, 0.000, 02:36:34.428
91, 29399.49, 8411.14, -187500.02, -187500.02, -187500.02, -187500.02, -187500.02, -187500.02, 0.000, 0.000, 0.000, 02:36:34.428
92, 29390.20, 8409.31, -187500.02, -187500.02, -187500.02, -187500.02, -187500.02, -187500.02, 0.000, 0.000, 0.000, 02:36:34.428
93, 29427.99, 8443.75, -187500.02, -187500.02, -187500.02, -187500.02, -187500.02, -187500.02, 0.000, 0.000, 0.000, 02:36:34.429
94, 29456.85, 8449.81, -187500.02, -187500.02, -187500.02, -187500.02, -187500.02, -187500.02, 0.000, 0.000, 0.000, 02:36:34.429
95, 29440.13, 8442.23, -187500.02, -187500.02, -187500.02, -187500.02, -187500.02, -187500.02, 0.000, 0.000, 0.000, 02:36:34.429
96, 29402.38, 8434.27, -187500.02, -187500.02, -187500.02, -187500.02, -187500.02, -187500.02, 0.200, 0.998, -0.088, 02:36:34.429
97, 29424.26, 8445.61, -187500.02, -187500.02, -187500.02, -187500.02, -187500.02, -187500.02, 0.000, 0.000, 0.000, 02:36:34.429
98, 29437.89, 8457.36, -187500.02, -187500.02, -187500.02, -187500.02, -187500.02, -187500.02, 0.000, 0.000, 0.000, 02:36:34.429
99, 29426.43, 8452.78, -187500.02, -187500.02, -187500.02, -187500.02, -187500.02, -187500.02, 0.000, 0.000, 0.000, 02:36:34.429
100, 29425.04, 8455.42, -187500.02, -187500.02, -187500.02, -187500.02, -187500.02, -187500.02, 0.000, 0.000, 0.000, 02:36:34.429
101, 29441.20, 8455.64, -187500.02, -187500.02, -187500.02, -187500.02, -187500.02, -187500.02, 0.000, 0.000, 0.000, 02:36:34.429
102, 29470.13, 8482.33, -187500.02, -187500.02, -187500.02, -187500.02, -187500.02, -187500.02, 0.000, 0.000, 0.000, 02:36:34.429
103, 29451.17, 8508.15, -187500.02, -187500.02, -187500.02, -187500.02, -187500.02, -187500.02, 0.000, 0.000, 0.000, 02:36:34.430
104, 29420.21, 8469.19, -187500.02, -187500.02, -187500.02, -187500.02, -187500.02, -187500.02, 0.000, 0.000, 0.000, 02:36:34.430
105, 29415.52, 8470.44, -187500.02, -187500.02, -187500.02, -187500.02, -187500.02, -187500.02, 0.000, 0.000, 0.000, 02:36:34.430
106, 29446.37, 8507.48, -187500.02, -187500.02, -187500.02, -187500.02, -187500.02, -187500.02, 0.206, 1.000, -0.090, 02:36:34.430
107, 29435.39, 8490.82, -187500.02, -187500.02, -187500.02, -187500.02, -187500.02, -187500.02, 0.000, 0.000, 0.000, 02:36:34.430
108, 29417.73, 8464.58, -187500.02, -187500.02, -187500.02, -187500.02, -187500.02, -187500.02, 0.000, 0.000, 0.000, 02:36:34.430
109, 29422.40, 8478.71, -187500.02, -187500.02, -187500.02, -187500.02, -187500.02, -187500.02, 0.000, 0.000, 0.000, 02:36:34.430
110, 29454.39, 8508.39, -187500.02, -187500.02, -187500.02, -187500.02, -187500.02, -187500.02, 0.000, 0.000, 0.000, 02:36:34.430
111, 29446.08, 8504.70, -187500.02, -187500.02, -187500.02, -187500.02, -187500.02, -187500.02, 0.000, 0.000, 0.000, 02:36:34.430
112, 29420.30, 8485.46, -187500.02, -187500.02, -187500.02, -187500.02, -187500.02, -187500.02, 0.000, 0.000, 0.000, 02:36:34.430
113, 29394.20, 8459.91, -187500.02, -187500.02, -187500.02, -187500.02, -187500.02, -187500.02, 0.000, 0.000, 0.000, 02:36:34.431
114, 29433.18, 8494.58, -187500.02, -187500.02, -187500.02, -187500.02, -187500.02, -187500.02, 0.000, 0.000, 0.000, 02:36:34.431
115, 29431.48, 8507.70, -187500.02, -187500.02, -187500.02, -187500.02, -187500.02, -187500.02, 0.000, 0.000, 0.000, 02:36:34.431
116, 29411.72, 8489.75, -187500.02, -187500.02, -187500.02, -187500.02, -187500.02, -187500.02, 0.212, 0.998, -0.092, 02:36:34.431
117, 29391.45, 8460.16, -187500.02, -187500.02, -187500.02, -187500.02, -187500.02, -187500.02, 0.000, 0.000, 0.000, 02:36:34.431
118, 29419.01, 8487.02, -187500.02, -187500.02, -187500.02, -187500.02, -187500.02, -187500.02, 0.000, 0.000, 0.000, 02:36:34.431
119, 29421.64, 8487.43, -187500.02, -187500.02, -187500.02, -187500.02, -187500.02, -187500.02, 0.000, 0.000, 0.000, 02:36:34.431
120, 29413.46, 8468.07, -187500.02, -187500.02, -187500.02, -187500.02, -187500.02, -187500.02, 0.000, 0.000, 0.000, 02:36:34.431
121, 29387.92, 8438.32, -187500.02, -187500.02, -187500.02, -187500.02, -187500.02, -187500.02, 0.000, 0.000, 0.000, 02:36:34.887
122, 29414.09, 8478.33, -187500.02, -187500.02, -187500.02, -187500.02, -187500.02, -187500.02, 0.000, 0.000, 0.000, 02:36:34.887
123, 29439.73, 8491.00, -187500.02, -187500.02, -187500.02, -187500.02, -187500.02, -187500.02, 0.000, 0.000, 0.000, 02:36:34.887
124, 29409.24, 8485.42, -187500.02, -187500.02, -187500.02, -187500.02, -187500.02, -187500.02, 0.000, 0.000, 0.000, 02:36:34.888
125, 29394.29, 8475.27, -187500.02, -187500.02, -187500.02, -187500.02, -187500.02, -187500.02, 0.000, 0.000, 0.000, 02:36:34.888
126, 29419.16, 8494.65, -187500.02, -187500.02, -187500.02, -187500.02, -187500.02, -187500.02, 0.208, 0.996, -0.088, 02:36:34.888
127, 29434.52, 8518.94, -187500.02, -187500.02, -187500.02, -187500.02, -187500.02, -187500.02, 0.000, 0.000, 0.000, 02:36:34.888
128, 29431.23, 8487.18, -187500.02, -187500.02, -187500.02, -187500.02, -187500.02, -187500.02, 0.000, 0.000, 0.000, 02:36:34.888
129, 29398.15, 8435.26, -187500.02, -187500.02, -187500.02, -187500.02, -187500.02, -187500.02, 0.000, 0.000, 0.000, 02:36:34.888
130, 29414.52, 8483.45, -187500.02, -187500.02, -187500.02, -187500.02, -187500.02, -187500.02, 0.000, 0.000, 0.000, 02:36:34.888
131, 29447.95, 8548.47, -187500.02, -187500.02, -187500.02, -187500.02, -187500.02, -187500.02, 0.000, 0.000, 0.000, 02:36:34.889
132, 29430.72, 8527.88, -187500.02, -187500.02, -187500.02, -187500.02, -187500.02, -187500.02, 0.000, 0.000, 0.000, 02:36:34.889
133, 29406.92, 8508.42, -187500.02, -187500.02, -187500.02, -187500.02, -187500.02, -187500.02, 0.000, 0.000, 0.000, 02:36:34.889
134, 29392.39, 8487.27, -187500.02, -187500.02, -187500.02, -187500.02, -187500.02, -187500.02, 0.000, 0.000, 0.000, 02:36:34.889
135, 29422.40, 8491.09, -187500.02, -187500.02, -187500.02, -187500.02, -187500.02, -187500.02, 0.210, 0.996, -0.090, 02:36:34.889
136, 29412.06, 8488.03, -187500.02, -187500.02, -187500.02, -187500.02, -187500.02, -187500.02, 0.000, 0.000, 0.000, 02:36:34.889
137, 29407.88, 8503.63, -187500.02, -187500.02, -187500.02, -187500.02, -187500.02, -187500.02, 0.000, 0.000, 0.000, 02:36:34.889
138, 29393.79, 8484.68, -187500.02, -187500.02, -187500.02, -187500.02, -187500.02, -187500.02, 0.000, 0.000, 0.000, 02:36:34.889
139, 29428.75, 8521.33, -187500.02, -187500.02, -187500.02, -187500.02, -187500.02, -187500.02, 0.000, 0.000, 0.000, 02:36:34.890
140, 29433.25, 8515.77, -187500.02, -187500.02, -187500.02, -187500.02, -187500.02, -187500.02, 0.000, 0.000, 0.000, 02:36:34.890
141, 29414.74, 8492.99, -187500.02, -187500.02, -187500.02, -187500.02, -187500.02, -187500.02, 0.000, 0.000, 0.000, 02:36:34.890
142, 29401.91, 8487.18, -187500.02, -187500.02, -187500.02, -187500.02, -187500.02, -187500.02, 0.000, 0.000, 0.000, 02:36:34.890
143, 29417.04, 8497.55, -187500.02, -187500.02, -187500.02, -187500.02, -187500.02, -187500.02, 0.000, 0.000, 0.000, 02:36:34.890
144, 29436.35, 8511.59, -187500.02, -187500.02, -187500.02, -187500.02, -187500.02, -187500.02, 0.000, 0.000, 0.000, 02:36:34.890
145, 29432.40, 8504.64, -187500.02, -187500.02, -187500.02, -187500.02, -187500.02, -187500.02, 0.208, 0.994, -0.090, 02:36:34.890
146, 29403.58, 8470.82, -187500.02, -187500.02, -187500.02, -187500.02, -187500.02, -187500.02, 0.000, 0.000, 0.000, 02:36:34.890
147, 29414.54, 8468.79, -187500.02, -187500.02, -187500.02, -187500.02, -187500.02, -187500.02, 0.000, 0.000, 0.000, 02:36:34.890
148, 29428.75, 8497.64, -187500.02, -187500.02, -187500.02, -187500.02, -187500.02, -187500.02, 0.000, 0.000, 0.000, 02:36:34.891
149, 29422.00, 8527.15, -187500.02, -187500.02, -187500.02, -187500.02, -187500.02, -187500.02, 0.000, 0.000, 0.000, 02:36:34.891
150, 29386.02, 8485.19, -187500.02, -187500.02, -187500.02, -187500.02, -187500.02, -187500.02, 0.000, 0.000, 0.000, 02:36:34.891
151, 29398.33, 8472.12, -187500.02, -187500.02, -187500.02, -187500.02, -187500.02, -187500.02, 0.000, 0.000, 0.000, 02:36:34.891
152, 29416.71, 8482.38, -187500.02, -187500.02, -187500.02, -187500.02, -187500.02, -187500.02, 0.000, 0.000, 0.000, 02:36:34.891
153, 29431.61, 8487.81, -187500.02, -187500.02, -187500.02, -187500.02, -187500.02, -187500.02, 0.000, 0.000, 0.000, 02:36:34.891
154, 29392.05, 8478.89, -187500.02, -187500.02, -187500.02, -187500.02, -187500.02, -187500.02, 0.000, 0.000, 0.000, 02:36:34.891
155, 29391.96, 8478.71, -187500.02, -187500.02, -187500.02, -187500.02, -187500.02, -187500.02, 0.208, 0.994, -0.086, 02:36:34.891
156, 29428.06, 8501.89, -187500.02, -187500.02, -187500.02, -187500.02, -187500.02, -187500.02, 0.000, 0.000, 0.000, 02:36:34.891
157, 29424.33, 8497.19, -187500.02, -187500.02, -187500.02, -187500.02, -187500.02, -187500.02, 0.000, 0.000, 0.000, 02:36:34.892
158, 29404.86, 8468.61, -187500.02, -187500.02, -187500.02, -187500.02, -187500.02, -187500.02, 0.000, 0.000, 0.000, 02:36:34.892
159, 29394.85, 8460.09, -187500.02, -187500.02, -187500.02, -187500.02, -187500.02, -187500.02, 0.000, 0.000, 0.000, 02:36:34.892
160, 29433.80, 8506.22, -187500.02, -187500.02, -187500.02, -187500.02, -187500.02, -187500.02, 0.000, 0.000, 0.000, 02:36:34.892
161, 29448.62, 8515.57, -187500.02, -187500.02, -187500.02, -187500.02, -187500.02, -187500.02, 0.000, 0.000, 0.000, 02:36:34.892
162, 29423.46, 8480.39, -187500.02, -187500.02, -187500.02, -187500.02, -187500.02, -187500.02, 0.000, 0.000, 0.000, 02:36:34.892
163, 29408.21, 8461.88, -187500.02, -187500.02, -187500.02, -187500.02, -187500.02, -187500.02, 0.000, 0.000, 0.000, 02:36:34.892
164, 29428.93, 8511.92, -187500.02, -187500.02, -187500.02, -187500.02, -187500.02, -187500.02, 0.000, 0.000, 0.000, 02:36:34.892
165, 29422.72, 8511.45, -187500.02, -187500.02, -187500.02, -187500.02, -187500.02, -187500.02, 0.206, 1.002, -0.084, 02:36:34.892
166, 29402.00, 8486.51, -187500.02, -187500.02, -187500.02, -187500.02, -187500.02, -187500.02, 0.000, 0.000, 0.000, 02:36:34.892
167, 29377.93, 8458.30, -187500.02, -187500.02, -187500.02, -187500.02, -187500.02, -187500.02, 0.000, 0.000, 0.000, 02:36:34.893
168, 29413.80, 8493.57, -187500.02, -187500.02, -187500.02, -187500.02, -187500.02, -187500.02, 0.000, 0.000, 0.000, 02:36:34.893
169, 29432.69, 8504.70, -187500.02, -187500.02, -187500.02, -187500.02, -187500.02, -187500.02, 0.000, 0.000, 0.000, 02:36:34.893
170, 29410.76, 8476.65, -187500.02, -187500.02, -187500.02, -187500.02, -187500.02, -187500.02, 0.000, 0.000, 0.000, 02:36:34.893
171, 29390.62, 8471.71, -187500.02, -187500.02, -187500.02, -187500.02, -187500.02, -187500.02, 0.000, 0.000, 0.000, 02:36:34.893
172, 29406.04, 8477.66, -187500.02, -187500.02, -187500.02, -187500.02, -187500.02, -187500.02, 0.000, 0.000, 0.000, 02:36:34.893
173, 29422.56, 8503.14, -187500.02, -187500.02, -187500.02, -187500.02, -187500.02, -187500.02, 0.000, 0.000, 0.000, 02:36:34.893
174, 29421.51, 8495.05, -187500.02, -187500.02, -187500.02, -187500.02, -187500.02, -187500.02, 0.000, 0.000, 0.000, 02:36:34.893
175, 29407.59, 8479.11, -187500.02, -187500.02, -187500.02, -187500.02, -187500.02, -187500.02, 0.212, 0.994, -0.080, 02:36:34.893
176, 29399.09, 8463.85, -187500.02, -187500.02, -187500.02, -187500.02, -187500.02, -187500.02, 0.000, 0.000, 0.000, 02:36:34.893
177, 29421.96, 8506.69, -187500.02, -187500.02, -187500.02, -187500.02, -187500.02, -187500.02, 0.000, 0.000, 0.000, 02:36:34.894
178, 29408.97, 8494.20, -187500.02, -187500.02, -187500.02, -187500.02, -187500.02, -187500.02, 0.000, 0.000, 0.000, 02:36:34.894
179, 29389.30, 8463.64, -187500.02, -187500.02, -187500.02, -187500.02, -187500.02, -187500.02, 0.000, 0.000, 0.000, 02:36:34.894
180, 29390.40, 8461.05, -187500.02, -187500.02, -187500.02, -187500.02, -187500.02, -187500.02, 0.000, 0.000, 0.000, 02:36:34.894
181, 29415.03, 8502.07, -187500.02, -187500.02, -187500.02, -187500.02, -187500.02, -187500.02, 0.000, 0.000, 0.000, 02:36:34.894
182, 29407.65, 8488.70, -187500.02, -187500.02, -187500.02, -187500.02, -187500.02, -187500.02, 0.000, 0.000, 0.000, 02:36:34.894
183, 29394.13, 8465.52, -187500.02, -187500.02, -187500.02, -187500.02, -187500.02, -187500.02, 0.000, 0.000, 0.000, 02:36:34.894
184, 29393.91, 8460.69, -187500.02, -187500.02, -187500.02, -187500.02, -187500.02, -187500.02, 0.000, 0.000, 0.000, 02:36:34.894
185, 29423.81, 8479.11, -187500.02, -187500.02, -187500.02, -187500.02, -187500.02, -187500.02, 0.206, 0.994, -0.086, 02:36:34.894
186, 29425.51, 8499.67, -187500.02, -187500.02, -187500.02, -187500.02, -187500.02, -187500.02, 0.000, 0.000, 0.000, 02:36:34.894
187, 29410.69, 8484.01, -187500.02, -187500.02, -187500.02, -187500.02, -187500.02, -187500.02, 0.000, 0.000, 0.000, 02:36:34.895
188, 29382.64, 8472.45, -187500.02, -187500.02, -187500.02, -187500.02, -187500.02, -187500.02, 0.000, 0.000, 0.000, 02:36:34.895
189, 29418.11, 8490.06, -187500.02, -187500.02, -187500.02, -187500.02, -187500.02, -187500.02, 0.000, 0.000, 0.000, 02:36:34.895
190, 29450.81, 8519.12, -187500.02, -187500.02, -187500.02, -187500.02, -187500.02, -187500.02, 0.000, 0.000, 0.000, 02:36:34.895
191, 29445.16, 8525.87, -187500.02, -187500.02, -187500.02, -187500.02, -187500.02, -187500.02, 0.000, 0.000, 0.000, 02:36:34.895
192, 29413.73, 8486.89, -187500.02, -187500.02, -187500.02, -187500.02, -187500.02, -187500.02, 0.000, 0.000, 0.000, 02:36:34.895
193, 29434.59, 8481.55, -187500.02, -187500.02, -187500.02, -187500.02, -187500.02, -187500.02, 0.000, 0.000, 0.000, 02:36:34.895
194, 29442.19, 8499.25, -187500.02, -187500.02, -187500.02, -187500.02, -187500.02, -187500.02, 0.206, 0.998, -0.080, 02:36:34.895
195, 29420.33, 8497.02, -187500.02, -187500.02, -187500.02, -187500.02, -187500.02, -187500.02, 0.000, 0.000, 0.000, 02:36:34.895
196, 29386.96, 8466.24, -187500.02, -187500.02, -187500.02, -187500.02, -187500.02, -187500.02, 0.000, 0.000, 0.000, 02:36:34.896
197, 29410.60, 8479.00, -187500.02, -187500.02, -187500.02, -187500.02, -187500.02, -187500.02, 0.000, 0.000, 0.000, 02:36:34.896
198, 29431.19, 8498.40, -187500.02, -187500.02, -187500.02, -187500.02, -187500.02, -187500.02, 0.000, 0.000, 0.000, 02:36:34.896
199, 29429.11, 8502.09, -187500.02, -187500.02, -187500.02, -187500.02, -187500.02, -187500.02, 0.000, 0.000, 0.000, 02:36:34.896
200, 29398.29, 8462.95, -187500.02, -187500.02, -187500.02, -187500.02, -187500.02, -187500.02, 0.000, 0.000, 0.000, 02:36:34.896
201, 29396.54, 8459.31, -187500.02, -187500.02, -187500.02, -187500.02, -187500.02, -187500.02, 0.000, 0.000, 0.000, 02:36:34.896
202, 29428.37, 8506.65, -187500.02, -187500.02, -187500.02, -187500.02, -187500.02, -187500.02, 0.000, 0.000, 0.000, 02:36:34.896
203, 29423.43, 8501.46, -187500.02, -187500.02, -187500.02, -187500.02, -187500.02, -187500.02, 0.000, 0.000, 0.000, 02:36:34.896
204, 29392.86, 8471.89, -187500.02, -187500.02, -187500.02, -187500.02, -187500.02, -187500.02, 0.204, 0.992, -0.082, 02:36:34.896
205, 29375.71, 8451.19, -187500.02, -187500.02, -187500.02, -187500.02, -187500.02, -187500.02, 0.000, 0.000, 0.000, 02:36:34.897
206, 29410.16, 8457.45, -187500.02, -187500.02, -187500.02, -187500.02, -187500.02, -187500.02, 0.000, 0.000, 0.000, 02:36:34.897
207, 29425.91, 8474.02, -187500.02, -187500.02, -187500.02, -187500.02, -187500.02, -187500.02, 0.000, 0.000, 0.000, 02:36:34.897
208, 29405.93, 8494.74, -187500.02, -187500.02, -187500.02, -187500.02, -187500.02, -187500.02, 0.000, 0.000, 0.000, 02:36:34.897
209, 29392.32, 8464.47, -187500.02, -187500.02, -187500.02, -187500.02, -187500.02, -187500.02, 0.000, 0.000, 0.000, 02:36:34.897
210, 29436.08, 8486.93, -187500.02, -187500.02, -187500.02, -187500.02, -187500.02, -187500.02, 0.000, 0.000, 0.000, 02:36:34.897
211, 29435.97, 8483.38, -187500.02, -187500.02, -187500.02, -187500.02, -187500.02, -187500.02, 0.000, 0.000, 0.000, 02:36:34.897
212, 29408.32, 8467.51, -187500.02, -187500.02, -187500.02, -187500.02, -187500.02, -187500.02, 0.000, 0.000, 0.000, 02:36:34.897
213, 29389.32, 8443.01, -187500.02, -187500.02, -187500.02, -187500.02, -187500.02, -187500.02, 0.000, 0.000, 0.000, 02:36:34.897
214, 29420.46, 8480.92, -187500.02, -187500.02, -187500.02, -187500.02, -187500.02, -187500.02, 0.210, 0.990, -0.084, 02:36:34.897
215, 29437.78, 8511.30, -187500.02, -187500.02, -187500.02, -187500.02, -187500.02, -187500.02, 0.000, 0.000, 0.000, 02:36:34.898
216, 29415.19, 8480.59, -187500.02, -187500.02, -187500.02, -187500.02, -187500.02, -187500.02, 0.000, 0.000, 0.000, 02:36:34.898
217, 29391.74, 8450.10, -187500.02, -187500.02, -187500.02, -187500.02, -187500.02, -187500.02, 0.000, 0.000, 0.000, 02:36:34.898
218, 29407.09, 8464.90, -187500.02, -187500.02, -187500.02, -187500.02, -187500.02, -187500.02, 0.000, 0.000, 0.000, 02:36:34.898
219, 29423.28, 8492.81, -187500.02, -187500.02, -187500.02, -187500.02, -187500.02, -187500.02, 0.000, 0.000, 0.000, 02:36:34.898
220, 29410.36, 8477.19, -187500.02, -187500.02, -187500.02, -187500.02, -187500.02, -187500.02, 0.000, 0.000, 0.000, 02:36:34.898
221, 29385.59, 8448.15, -187500.02, -187500.02, -187500.02, -187500.02, -187500.02, -187500.02, 0.000, 0.000, 0.000, 02:36:34.898
222, 29400.88, 8455.24, -187500.02, -187500.02, -187500.02, -187500.02, -187500.02, -187500.02, 0.000, 0.000, 0.000, 02:36:34.898
223, 29423.57, 8466.93, -187500.02, -187500.02, -187500.02, -187500.02, -187500.02, -187500.02, 0.000, 0.000, 0.000, 02:36:34.898
224, 29412.93, 8466.93, -187500.02, -187500.02, -187500.02, -187500.02, -187500.02, -187500.02, 0.206, 0.994, -0.088, 02:36:34.899
225, 29390.46, 8459.93, -187500.02, -187500.02, -187500.02, -187500.02, -187500.02, -187500.02, 0.000, 0.000, 0.000, 02:36:34.899
226, 29393.59, 8454.35, -187500.02, -187500.02, -187500.02, -187500.02, -187500.02, -187500.02, 0.000, 0.000, 0.000, 02:36:34.899
227, 29416.26, 8476.67, -187500.02, -187500.02, -187500.02, -187500.02, -187500.02, -187500.02, 0.000, 0.000, 0.000, 02:36:34.899
228, 29412.30, 8467.13, -187500.02, -187500.02, -187500.02, -187500.02, -187500.02, -187500.02, 0.000, 0.000, 0.000, 02:36:34.899
229, 29384.29, 8446.95, -187500.02, -187500.02, -187500.02, -187500.02, -187500.02, -187500.02, 0.000, 0.000, 0.000, 02:36:34.900
230, 29373.23, 8430.23, -187500.02, -187500.02, -187500.02, -187500.02, -187500.02, -187500.02, 0.000, 0.000, 0.000, 02:36:34.900
231, 29415.36, 8465.14, -187500.02, -187500.02, -187500.02, -187500.02, -187500.02, -187500.02, 0.000, 0.000, 0.000, 02:36:34.900
232, 29412.88, 8468.76, -187500.02, -187500.02, -187500.02, -187500.02, -187500.02, -187500.02, 0.000, 0.000, 0.000, 02:36:34.900
233, 29387.94, 8441.11, -187500.02, -187500.02, -187500.02, -187500.02, -187500.02, -187500.02, 0.000, 0.000, 0.000, 02:36:34.901
234, 29376.76, 8424.13, -187500.02, -187500.02, -187500.02, -187500.02, -187500.02, -187500.02, 0.208, 0.996, -0.086, 02:36:34.901
235, 29401.06, 8454.30, -187500.02, -187500.02, -187500.02, -187500.02, -187500.02, -187500.02, 0.000, 0.000, 0.000, 02:36:34.901
236, 29409.29, 8450.86, -187500.02, -187500.02, -187500.02, -187500.02, -187500.02, -187500.02, 0.000, 0.000, 0.000, 02:36:34.901
237, 29392.74, 8449.99, -187500.02, -187500.02, -187500.02, -187500.02, -187500.02, -187500.02, 0.000, 0.000, 0.000, 02:36:34.901
238, 29371.96, 8433.18, -187500.02, -187500.02, -187500.02, -187500.02, -187500.02, -187500.02, 0.000, 0.000, 0.000, 02:36:34.901
239, 29403.00, 8454.19, -187500.02, -187500.02, -187500.02, -187500.02, -187500.02, -187500.02, 0.000, 0.000, 0.000, 02:36:34.901
240, 29424.35, 8462.64, -187500.02, -187500.02, -187500.02, -187500.02, -187500.02, -187500.02, 0.000, 0.000, 0.000, 02:36:34.902
241, 29402.87, 8447.17, -187500.02, -187500.02, -187500.02, -187500.02, -187500.02, -187500.02, 0.000, 0.000, 0.000, 02:36:35.366
242, 29365.16, 8422.20, -187500.02, -187500.02, -187500.02, -187500.02, -187500.02, -187500.02, 0.000, 0.000, 0.000, 02:36:35.366
243, 29387.09, 8429.36, -187500.02, -187500.02, -187500.02, -187500.02, -187500.02, -187500.02, 0.000, 0.000, 0.000, 02:36:35.366
244, 29418.92, 8473.59, -187500.02, -187500.02, -187500.02, -187500.02, -187500.02, -187500.02, 0.204, 0.992, -0.092, 02:36:35.367
245, 29410.04, 8458.82, -187500.02, -187500.02, -187500.02, -187500.02, -187500.02, -187500.02, 0.000, 0.000, 0.000, 02:36:35.367
246, 29373.01, 8433.71, -187500.02, -187500.02, -187500.02, -187500.02, -187500.02, -187500.02, 0.000, 0.000, 0.000, 02:36:35.367
247, 29392.36, 8433.71, -187500.02, -187500.02, -187500.02, -187500.02, -187500.02, -187500.02, 0.000, 0.000, 0.000, 02:36:35.367
248, 29414.20, 8470.17, -187500.02, -187500.02, -187500.02, -187500.02, -187500.02, -187500.02, 0.000, 0.000, 0.000, 02:36:35.367
249, 29412.10, 8470.64, -187500.02, -187500.02, -187500.02, -187500.02, -187500.02, -187500.02, 0.000, 0.000, 0.000, 02:36:35.367
250, 29386.69, 8442.81, -187500.02, -187500.02, -187500.02, -187500.02, -187500.02, -187500.02, 0.000, 0.000, 0.000, 02:36:35.367
251, 29391.92, 8446.12, -187500.02, -187500.02, -187500.02, -187500.02, -187500.02, -187500.02, 0.000, 0.000, 0.000, 02:36:35.367
252, 29419.05, 8461.77, -187500.02, -187500.02, -187500.02, -187500.02, -187500.02, -187500.02, 0.000, 0.000, 0.000, 02:36:35.368
253, 29407.90, 8463.40, -187500.02, -187500.02, -187500.02, -187500.02, -187500.02, -187500.02, 0.000, 0.000, 0.000, 02:36:35.368
254, 29379.85, 8441.63, -187500.02, -187500.02, -187500.02, -187500.02, -187500.02, -187500.02, 0.204, 0.992, -0.090, 02:36:35.368
255, 29373.81, 8431.86, -187500.02, -187500.02, -187500.02, -187500.02, -187500.02, -187500.02, 0.000, 0.000, 0.000, 02:36:35.368
0, 29403.90, 8446.14, -187500.02, -187500.02, -187500.02, -187500.02, -187500.02, -187500.02, 0.000, 0.000, 0.000, 02:36:35.368
1, 29405.87, 8449.05, -187500.02, -187500.02, -187500.02, -187500.02, -187500.02, -187500.02, 0.000, 0.000, 0.000, 02:36:35.368
2, 29390.84, 8434.59, -187500.02, -187500.02, -187500.02, -187500.02, -187500.02, -187500.02, 0.000, 0.000, 0.000, 02:36:35.368
3, 29374.01, 8408.46, -187500.02, -187500.02, -187500.02, -187500.02, -187500.02, -187500.02, 0.000, 0.000, 0.000, 02:36:35.368
4, 29393.79, 8440.53, -187500.02, -187500.02, -187500.02, -187500.02, -187500.02, -187500.02, 0.000, 0.000, 0.000, 02:36:35.368
5, 29408.66, 8474.19, -187500.02, -187500.02, -187500.02, -187500.02, -187500.02, -187500.02, 0.000, 0.000, 0.000, 02:36:35.369
6, 29405.06, 8457.07, -187500.02, -187500.02, -187500.02, -187500.02, -187500.02, -187500.02, 0.000, 0.000, 0.000, 02:36:35.369
7, 29385.77, 8417.02, -187500.02, -187500.02, -187500.02, -187500.02, -187500.02, -187500.02, 0.196, 0.990, -0.086, 02:36:35.369
8, 29396.12, 8420.66, -187500.02, -187500.02, -187500.02, -187500.02, -187500.02, -187500.02, 0.000, 0.000, 0.000, 02:36:35.369
9, 29403.96, 8442.21, -187500.02, -187500.02, -187500.02, -187500.02, -187500.02, -187500.02, 0.000, 0.000, 0.000, 02:36:35.369
10, 29402.58, 8450.59, -187500.02, -187500.02, -187500.02, -187500.02, -187500.02, -187500.02, 0.000, 0.000, 0.000, 02:36:35.369
11, 29380.38, 8434.86, -187500.02, -187500.02, -187500.02, -187500.02, -187500.02, -187500.02, 0.000, 0.000, 0.000, 02:36:35.369
12, 29393.79, 8434.16, -187500.02, -187500.02, -187500.02, -187500.02, -187500.02, -187500.02, 0.000, 0.000, 0.000, 02:36:35.369
13, 29415.28, 8460.43, -187500.02, -187500.02, -187500.02, -187500.02, -187500.02, -187500.02, 0.000, 0.000, 0.000, 02:36:35.369
14, 29414.98, 8461.05, -187500.02, -187500.02, -187500.02, -187500.02, -187500.02, -187500.02, 0.000, 0.000, 0.000, 02:36:35.369
15, 29378.60, 8426.29, -187500.02, -187500.02, -187500.02, -187500.02, -187500.02, -187500.02, 0.000, 0.000, 0.000, 02:36:35.370
16, 29393.06, 8440.35, -187500.02, -187500.02, -187500.02, -187500.02, -187500.02, -187500.02, 0.000, 0.000, 0.000, 02:36:35.370
17, 29434.99, 8467.73, -187500.02, -187500.02, -187500.02, -187500.02, -187500.02, -187500.02, 0.202, 0.990, -0.084, 02:36:35.370
18, 29423.97, 8452.49, -187500.02, -187500.02, -187500.02, -187500.02, -187500.02, -187500.02, 0.000, 0.000, 0.000, 02:36:35.370
19, 29405.35, 8410.71, -187500.02, -187500.02, -187500.02, -187500.02, -187500.02, -187500.02, 0.000, 0.000, 0.000, 02:36:35.370
20, 29396.03, 8410.11, -187500.02, -187500.02, -187500.02, -187500.02, -187500.02, -187500.02, 0.000, 0.000, 0.000, 02:36:35.370
21, 29422.90, 8445.90, -187500.02, -187500.02, -187500.02, -187500.02, -187500.02, -187500.02, 0.000, 0.000, 0.000, 02:36:35.370
22, 29407.83, 8430.52, -187500.02, -187500.02, -187500.02, -187500.02, -187500.02, -187500.02, 0.000, 0.000, 0.000, 02:36:35.370
23, 29374.57, 8398.51, -187500.02, -187500.02, -187500.02, -187500.02, -187500.02, -187500.02, 0.000, 0.000, 0.000, 02:36:35.370
24, 29372.94, 8402.85, -187500.02, -187500.02, -187500.02, -187500.02, -187500.02, -187500.02, 0.000, 0.000, 0.000, 02:36:35.371
25, 29426.16, 8448.80, -187500.02, -187500.02, -187500.02, -187500.02, -187500.02, -187500.02, 0.000, 0.000, 0.000, 02:36:35.371
26, 29440.67, 8480.50, -187500.02, -187500.02, -187500.02, -187500.02, -187500.02, -187500.02, 0.000, 0.000, 0.000, 02:36:35.371
27, 29429.22, 8469.17, -187500.02, -187500.02, -187500.02, -187500.02, -187500.02, -187500.02, 0.206, 0.994, -0.082, 02:36:35.371
28, 29392.07, 8421.76, -187500.02, -187500.02, -187500.02, -187500.02, -187500.02, -187500.02, 0.000, 0.000, 0.000, 02:36:35.371
29, 29421.73, 8456.69, -187500.02, -187500.02, -187500.02, -187500.02, -187500.02, -187500.02, 0.000, 0.000, 0.000, 02:36:35.371
30, 29431.86, 8465.50, -187500.02, -187500.02, -187500.02, -187500.02, -187500.02, -187500.02, 0.000, 0.000, 0.000, 02:36:35.371
31, 29417.58, 8436.80, -187500.02, -187500.02, -187500.02, -187500.02, -187500.02, -187500.02, 0.000, 0.000, 0.000, 02:36:35.371
32, 29381.41, 8403.36, -187500.02, -187500.02, -187500.02, -187500.02, -187500.02, -187500.02, 0.000, 0.000, 0.000, 02:36:35.371
33, 29404.30, 8428.22, -187500.02, -187500.02, -187500.02, -187500.02, -187500.02, -187500.02, 0.000, 0.000, 0.000, 02:36:35.372
34, 29431.75, 8457.72, -187500.02, -187500.02, -187500.02, -187500.02, -187500.02, -187500.02, 0.000, 0.000, 0.000, 02:36:35.372
35, 29420.26, 8428.35, -187500.02, -187500.02, -187500.02, -187500.02, -187500.02, -187500.02, 0.000, 0.000, 0.000, 02:36:35.372
36, 29392.86, 8423.23, -187500.02, -187500.02, -187500.02, -187500.02, -187500.02, -187500.02, 0.000, 0.000, 0.000, 02:36:35.372
37, 29410.92, 8436.46, -187500.02, -187500.02, -187500.02, -187500.02, -187500.02, -187500.02, 0.202, 0.994, -0.082, 02:36:35.372
38, 29436.96, 8465.46, -187500.02, -187500.02, -187500.02, -187500.02, -187500.02, -187500.02, 0.000, 0.000, 0.000, 02:36:35.372
39, 29419.83, 8436.08, -187500.02, -187500.02, -187500.02, -187500.02, -187500.02, -187500.02, 0.000, 0.000, 0.000, 02:36:35.372
40, 29391.85, 8406.56, -187500.02, -187500.02, -187500.02, -187500.02, -187500.02, -187500.02, 0.000, 0.000, 0.000, 02:36:35.372
41, 29407.54, 8425.56, -187500.02, -187500.02, -187500.02, -187500.02, -187500.02, -187500.02, 0.000, 0.000, 0.000, 02:36:35.372
42, 29432.37, 8448.85, -187500.02, -187500.02, -187500.02, -187500.02, -187500.02, -187500.02, 0.000, 0.000, 0.000, 02:36:35.373
43, 29424.60, 8445.92, -187500.02, -187500.02, -187500.02, -187500.02, -187500.02, -187500.02, 0.000, 0.000, 0.000, 02:36:35.373
44, 29397.33, 8422.05, -187500.02, -187500.02, -187500.02, -187500.02, -187500.02, -187500.02, 0.000, 0.000, 0.000, 02:36:35.373
45, 29396.59, 8409.26, -187500.02, -187500.02, -187500.02, -187500.02, -187500.02, -187500.02, 0.000, 0.000, 0.000, 02:36:35.373
46, 29428.02, 8442.83, -187500.02, -187500.02, -187500.02, -187500.02, -187500.02, -187500.02, 0.000, 0.000, 0.000, 02:36:35.373
47, 29429.98, 8442.99, -187500.02, -187500.02, -187500.02, -187500.02, -187500.02, -187500.02, 0.202, 0.996, -0.086, 02:36:35.373
48, 29410.98, 8427.79, -187500.02, -187500.02, -187500.02, -187500.02, -187500.02, -187500.02, 0.000, 0.000, 0.000, 02:36:35.373
49, 29390.82, 8399.92, -187500.02, -187500.02, -187500.02, -187500.02, -187500.02, -187500.02, 0.000, 0.000, 0.000, 02:36:35.373
50, 29414.92, 8409.42, -187500.02, -187500.02, -187500.02, -187500.02, -187500.02, -187500.02, 0.000, 0.000, 0.000, 02:36:35.374
51, 29430.50, 8434.86, -187500.02, -187500.02, -187500.02, -187500.02, -187500.02, -187500.02, 0.000, 0.000, 0.000, 02:36:35.374
52, 29408.08, 8432.82, -187500.02, -187500.02, -187500.02, -187500.02, -187500.02, -187500.02, 0.000, 0.000, 0.000, 02:36:35.374
53, 29389.03, 8395.63, -187500.02, -187500.02, -187500.02, -187500.02, -187500.02, -187500.02, 0.000, 0.000, 0.000, 02:36:35.374
54, 29415.34, 8417.73, -187500.02, -187500.02, -187500.02, -187500.02, -187500.02, -187500.02, 0.000, 0.000, 0.000, 02:36:35.374
55, 29419.79, 8445.63, -187500.02, -187500.02, -187500.02, -187500.02, -187500.02, -187500.02, 0.000, 0.000, 0.000, 02:36:35.374
56, 29407.32, 8429.27, -187500.02, -187500.02, -187500.02, -187500.02, -187500.02, -187500.02, 0.000, 0.000, 0.000, 02:36:35.374
57, 29376.43, 8381.97, -187500.02, -187500.02, -187500.02, -187500.02, -187500.02, -187500.02, 0.206, 0.998, -0.090, 02:36:35.374
58, 29405.44, 8418.99, -187500.02, -187500.02, -187500.02, -187500.02, -187500.02, -187500.02, 0.000, 0.000, 0.000, 02:36:35.374
59, 29424.69, 8439.08, -187500.02, -187500.02, -187500.02, -187500.02, -187500.02, -187500.02, 0.000, 0.000, 0.000, 02:36:35.375
60, 29415.92, 8431.39, -187500.02, -187500.02, -187500.02, -187500.02, -187500.02, -187500.02, 0.000, 0.000, 0.000, 02:36:35.375
61, 29394.09, 8409.69, -187500.02, -187500.02, -187500.02, -187500.02, -187500.02, -187500.02, 0.000, 0.000, 0.000, 02:36:35.375
62, 29406.71, 8427.26, -187500.02, -187500.02, -187500.02, -187500.02, -187500.02, -187500.02, 0.000, 0.000, 0.000, 02:36:35.375
63, 29424.42, 8448.76, -187500.02, -187500.02, -187500.02, -187500.02, -187500.02, -187500.02, 0.000, 0.000, 0.000, 02:36:35.375
64, 29412.64, 8419.54, -187500.02, -187500.02, -187500.02, -187500.02, -187500.02, -187500.02, 0.000, 0.000, 0.000, 02:36:35.375
65, 29390.89, 8414.38, -187500.02, -187500.02, -187500.02, -187500.02, -187500.02, -187500.02, 0.000, 0.000, 0.000, 02:36:35.375
66, 29393.57, 8434.56, -187500.02, -187500.02, -187500.02, -187500.02, -187500.02, -187500.02, 0.204, 0.996, -0.088, 02:36:35.375
67, 29423.59, 8454.50, -187500.02, -187500.02, -187500.02, -187500.02, -187500.02, -187500.02, 0.000, 0.000, 0.000, 02:36:35.375
68, 29422.85, 8457.52, -187500.02, -187500.02, -187500.02, -187500.02, -187500.02, -187500.02, 0.000, 0.000, 0.000, 02:36:35.376
69, 29413.46, 8457.97, -187500.02, -187500.02, -187500.02, -187500.02, -187500.02, -187500.02, 0.000, 0.000, 0.000, 02:36:35.376
70, 29410.60, 8456.31, -187500.02, -187500.02, -187500.02, -187500.02, -187500.02, -187500.02, 0.000, 0.000, 0.000, 02:36:35.376
71, 29436.35, 8479.04, -187500.02, -187500.02, -187500.02, -187500.02, -187500.02, -187500.02, 0.000, 0.000, 0.000, 02:36:35.376
72, 29436.49, 8494.51, -187500.02, -187500.02, -187500.02, -187500.02, -187500.02, -187500.02, 0.000, 0.000, 0.000, 02:36:35.376
73, 29402.80, 8477.03, -187500.02, -187500.02, -187500.02, -187500.02, -187500.02, -187500.02, 0.000, 0.000, 0.000, 02:36:35.376
74, 29395.78, 8456.98, -187500.02, -187500.02, -187500.02, -187500.02, -187500.02, -187500.02, 0.000, 0.000, 0.000, 02:36:35.376
75, 29423.10, 8472.61, -187500.02, -187500.02, -187500.02, -187500.02, -187500.02, -187500.02, 0.000, 0.000, 0.000, 02:36:35.376
76, 29423.66, 8486.71, -187500.02, -187500.02, -187500.02, -187500.02, -187500.02, -187500.02, 0.208, 0.996, -0.088, 02:36:35.376
77, 29406.02, 8478.31, -187500.02, -187500.02, -187500.02, -187500.02, -187500.02, -187500.02, 0.000, 0.000, 0.000, 02:36:35.377
78, 29389.97, 8435.41, -187500.02, -187500.02, -187500.02, -187500.02, -187500.02, -187500.02, 0.000, 0.000, 0.000, 02:36:35.377
79, 29418.07, 8484.34, -187500.02, -187500.02, -187500.02, -187500.02, -187500.02, -187500.02, 0.000, 0.000, 0.000, 02:36:35.377
80, 29429.60, 8494.02, -187500.02, -187500.02, -187500.02, -187500.02, -187500.02, -187500.02, 0.000, 0.000, 0.000, 02:36:35.377
81, 29413.08, 8481.17, -187500.02, -187500.02, -187500.02, -187500.02, -187500.02, -187500.02, 0.000, 0.000, 0.000, 02:36:35.377
82, 29401.80, 8486.58, -187500.02, -187500.02, -187500.02, -187500.02, -187500.02, -187500.02, 0.000, 0.000, 0.000, 02:36:35.377
83, 29419.01, 8498.40, -187500.02, -187500.02, -187500.02, -187500.02, -187500.02, -187500.02, 0.000, 0.000, 0.000, 02:36:35.377
84, 29438.45, 8506.20, -187500.02, -187500.02, -187500.02, -187500.02, -187500.02, -187500.02, 0.000, 0.000, 0.000, 02:36:35.377
85, 29417.02, 8484.59, -187500.02, -187500.02, -187500.02, -187500.02, -187500.02, -187500.02, 0.000, 0.000, 0.000, 02:36:35.377
86, 29381.68, 8456.58, -187500.02, -187500.02, -187500.02, -187500.02, -187500.02, -187500.02, 0.206, 0.998, -0.090, 02:36:35.378
87, 29401.77, 8471.47, -187500.02, -187500.02, -187500.02, -187500.02, -187500.02, -187500.02, 0.000, 0.000, 0.000, 02:36:35.378
88, 29438.43, 8483.34, -187500.02, -187500.02, -187500.02, -187500.02, -187500.02, -187500.02, 0.000, 0.000, 0.000, 02:36:35.378
89, 29422.81, 8481.75, -187500.02, -187500.02, -187500.02, -187500.02, -187500.02, -187500.02, 0.000, 0.000, 0.000, 02:36:35.378
90, 29398.15, 8460.43, -187500.02, -187500.02, -187500.02, -187500.02, -187500.02, -187500.02, 0.000, 0.000, 0.000, 02:36:35.378
91, 29408.95, 8469.34, -187500.02, -187500.02, -187500.02, -187500.02, -187500.02, -187500.02, 0.000, 0.000, 0.000, 02:36:35.378
92, 29456.45, 8506.34, -187500.02, -187500.02, -187500.02, -187500.02, -187500.02, -187500.02, 0.000, 0.000, 0.000, 02:36:35.378
93, 29442.30, 8517.67, -187500.02, -187500.02, -187500.02, -187500.02, -187500.02, -187500.02, 0.000, 0.000, 0.000, 02:36:35.378
94, 29411.16, 8488.46, -187500.02, -187500.02, -187500.02, -187500.02, -187500.02, -187500.02, 0.000, 0.000, 0.000, 02:36:35.378
95, 29401.55, 8483.89, -187500.02, -187500.02, -187500.02, -187500.02, -187500.02, -187500.02, 0.000, 0.000, 0.000, 02:36:35.379
96, 29429.20, 8509.00, -187500.02, -187500.02, -187500.02, -187500.02, -187500.02, -187500.02, 0.208, 0.996, -0.090, 02:36:35.379
97, 29434.30, 8519.39, -187500.02, -187500.02, -187500.02, -187500.02, -187500.02, -187500.02, 0.000, 0.000, 0.000, 02:36:35.379
98, 29417.82, 8494.18, -187500.02, -187500.02, -187500.02, -187500.02, -187500.02, -187500.02, 0.000, 0.000, 0.000, 02:36:35.379
99, 29403.99, 8476.65, -187500.02, -187500.02, -187500.02, -187500.02, -187500.02, -187500.02, 0.000, 0.000, 0.000, 02:36:35.379
100, 29423.59, 8498.04, -187500.02, -187500.02, -187500.02, -187500.02, -187500.02, -187500.02, 0.000, 0.000, 0.000, 02:36:35.379
101, 29434.14, 8515.43, -187500.02, -187500.02, -187500.02, -187500.02, -187500.02, -187500.02, 0.000, 0.000, 0.000, 02:36:35.379
102, 29416.75, 8506.22, -187500.02, -187500.02, -187500.02, -187500.02, -187500.02, -187500.02, 0.000, 0.000, 0.000, 02:36:35.379
103, 29390.73, 8485.24, -187500.02, -187500.02, -187500.02, -187500.02, -187500.02, -187500.02, 0.000, 0.000, 0.000, 02:36:35.379
104, 29422.12, 8507.83, -187500.02, -187500.02, -187500.02, -187500.02, -187500.02, -187500.02, 0.000, 0.000, 0.000, 02:36:35.380
105, 29446.16, 8517.02, -187500.02, -187500.02, -187500.02, -187500.02, -187500.02, -187500.02, 0.000, 0.000, 0.000, 02:36:35.847
106, 29414.25, 8483.13, -187500.02, -187500.02, -187500.02, -187500.02, -187500.02, -187500.02, 0.208, 0.998, -0.084, 02:36:35.847
107, 29383.74, 8458.41, -187500.02, -187500.02, -187500.02, -187500.02, -187500.02, -187500.02, 0.000, 0.000, 0.000, 02:36:35.847
108, 29435.93, 8513.31, -187500.02, -187500.02, -187500.02, -187500.02, -187500.02, -187500.02, 0.000, 0.000, 0.000, 02:36:35.847
109, 29449.65, 8534.52, -187500.02, -187500.02, -187500.02, -187500.02, -187500.02, -187500.02, 0.000, 0.000, 0.000, 02:36:35.848
110, 29429.02, 8516.44, -187500.02, -187500.02, -187500.02, -187500.02, -187500.02, -187500.02, 0.000, 0.000, 0.000, 02:36:35.848
111, 29399.27, 8500.84, -187500.02, -187500.02, -187500.02, -187500.02, -187500.02, -187500.02, 0.000, 0.000, 0.000, 02:36:35.848
112, 29419.72, 8519.21, -187500.02, -187500.02, -187500.02, -187500.02, -187500.02, -187500.02, 0.000, 0.000, 0.000, 02:36:35.848
113, 29442.23, 8527.73, -187500.02, -187500.02, -187500.02, -187500.02, -187500.02, -187500.02, 0.000, 0.000, 0.000, 02:36:35.848
114, 29424.62, 8502.07, -187500.02, -187500.02, -187500.02, -187500.02, -187500.02, -187500.02, 0.000, 0.000, 0.000, 02:36:35.848
115, 29394.60, 8489.77, -187500.02, -187500.02, -187500.02, -187500.02, -187500.02, -187500.02, 0.000, 0.000, 0.000, 02:36:35.848
116, 29402.51, 8490.02, -187500.02, -187500.02, -187500.02, -187500.02, -187500.02, -187500.02, 0.208, 0.998, -0.082, 02:36:35.848
117, 29428.48, 8516.93, -187500.02, -187500.02, -187500.02, -187500.02, -187500.02, -187500.02, 0.000, 0.000, 0.000, 02:36:35.849
118, 29429.89, 8515.72, -187500.02, -187500.02, -187500.02, -187500.02, -187500.02, -187500.02, 0.000, 0.000, 0.000, 02:36:35.849
119, 29406.87, 8474.13, -187500.02, -187500.02, -187500.02, -187500.02, -187500.02, -187500.02, 0.000, 0.000, 0.000, 02:36:35.849
120, 29414.36, 8482.33, -187500.02, -187500.02, -187500.02, -187500.02, -187500.02, -187500.02, 0.000, 0.000, 0.000, 02:36:35.849
121, 29445.67, 8534.16, -187500.02, -187500.02, -187500.02, -187500.02, -187500.02, -187500.02, 0.000, 0.000, 0.000, 02:36:35.849
122, 29459.35, 8540.71, -187500.02, -187500.02, -187500.02, -187500.02, -187500.02, -187500.02, 0.000, 0.000, 0.000, 02:36:35.849
123, 29407.25, 8480.09, -187500.02, -187500.02, -187500.02, -187500.02, -187500.02, -187500.02, 0.000, 0.000, 0.000, 02:36:35.849
124, 29376.47, 8454.57, -187500.02, -187500.02, -187500.02, -187500.02, -187500.02, -187500.02, 0.000, 0.000, 0.000, 02:36:35.849
125, 29431.41, 8518.45, -187500.02, -187500.02, -187500.02, -187500.02, -187500.02, -187500.02, 0.210, 0.992, -0.078, 02:36:35.850
126, 29431.95, 8508.21, -187500.02, -187500.02, -187500.02, -187500.02, -187500.02, -187500.02, 0.000, 0.000, 0.000, 02:36:35.850
127, 29402.89, 8474.26, -187500.02, -187500.02, -187500.02, -187500.02, -187500.02, -187500.02, 0.000, 0.000, 0.000, 02:36:35.850
128, 29388.43, 8454.21, -187500.02, -187500.02, -187500.02, -187500.02, -187500.02, -187500.02, 0.000, 0.000, 0.000, 02:36:35.850
129, 29421.73, 8493.10, -187500.02, -187500.02, -187500.02, -187500.02, -187500.02, -187500.02, 0.000, 0.000, 0.000, 02:36:35.850
130, 29442.83, 8508.21, -187500.02, -187500.02, -187500.02, -187500.02, -187500.02, -187500.02, 0.000, 0.000, 0.000, 02:36:35.850
131, 29422.40, 8494.40, -187500.02, -187500.02, -187500.02, -187500.02, -187500.02, -187500.02, 0.000, 0.000, 0.000, 02:36:35.850
132, 29381.05, 8470.28, -187500.02, -187500.02, -187500.02, -187500.02, -187500.02, -187500.02, 0.000, 0.000, 0.000, 02:36:35.851
133, 29399.79, 8478.82, -187500.02, -187500.02, -187500.02, -187500.02, -187500.02, -187500.02, 0.000, 0.000, 0.000, 02:36:35.851
134, 29418.78, 8505.26, -187500.02, -187500.02, -187500.02, -187500.02, -187500.02, -187500.02, 0.000, 0.000, 0.000, 02:36:35.851
135, 29420.28, 8507.52, -187500.02, -187500.02, -187500.02, -187500.02, -187500.02, -187500.02, 0.214, 0.994, -0.084, 02:36:35.851
136, 29377.86, 8467.29, -187500.02, -187500.02, -187500.02, -187500.02, -187500.02, -187500.02, 0.000, 0.000, 0.000, 02:36:35.851
137, 29385.01, 8468.43, -187500.02, -187500.02, -187500.02, -187500.02, -187500.02, -187500.02, 0.000, 0.000, 0.000, 02:36:35.851
138, 29423.12, 8486.31, -187500.02, -187500.02, -187500.02, -187500.02, -187500.02, -187500.02, 0.000, 0.000, 0.000, 02:36:35.851
139, 29436.53, 8523.03, -187500.02, -187500.02, -187500.02, -187500.02, -187500.02, -187500.02, 0.000, 0.000, 0.000, 02:36:35.852
140, 29410.67, 8481.21, -187500.02, -187500.02, -187500.02, -187500.02, -187500.02, -187500.02, 0.000, 0.000, 0.000, 02:36:35.852
141, 29397.93, 8457.83, -187500.02, -187500.02, -187500.02, -187500.02, -187500.02, -187500.02, 0.000, 0.000, 0.000, 02:36:35.852
142, 29431.08, 8517.40, -187500.02, -187500.02, -187500.02, -187500.02, -187500.02, -187500.02, 0.000, 0.000, 0.000, 02:36:35.852
143, 29433.40, 8517.67, -187500.02, -187500.02, -187500.02, -187500.02, -187500.02, -187500.02, 0.000, 0.000, 0.000, 02:36:35.852
144, 29399.83, 8484.12, -187500.02, -187500.02, -187500.02, -187500.02, -187500.02, -187500.02, 0.000, 0.000, 0.000, 02:36:35.852
145, 29376.63, 8461.79, -187500.02, -187500.02, -187500.02, -187500.02, -187500.02, -187500.02, 0.210, 0.998, -0.082, 02:36:35.852
146, 29415.95, 8495.58, -187500.02, -187500.02, -187500.02, -187500.02, -187500.02, -187500.02, 0.000, 0.000, 0.000, 02:36:35.853
147, 29425.80, 8510.58, -187500.02, -187500.02, -187500.02, -187500.02, -187500.02, -187500.02, 0.000, 0.000, 0.000, 02:36:35.853
148, 29406.20, 8493.13, -187500.02, -187500.02, -187500.02, -187500.02, -187500.02, -187500.02, 0.000, 0.000, 0.000, 02:36:35.853
149, 29386.62, 8457.77, -187500.02, -187500.02, -187500.02, -187500.02, -187500.02, -187500.02, 0.000, 0.000, 0.000, 02:36:35.853
150, 29417.20, 8474.46, -187500.02, -187500.02, -187500.02, -187500.02, -187500.02, -187500.02, 0.000, 0.000, 0.000, 02:36:35.853
151, 29423.19, 8491.76, -187500.02, -187500.02, -187500.02, -187500.02, -187500.02, -187500.02, 0.000, 0.000, 0.000, 02:36:35.853
152, 29412.77, 8487.87, -187500.02, -187500.02, -187500.02, -187500.02, -187500.02, -187500.02, 0.000, 0.000, 0.000, 02:36:35.853
153, 29398.67, 8472.25, -187500.02, -187500.02, -187500.02, -187500.02, -187500.02, -187500.02, 0.000, 0.000, 0.000, 02:36:35.854
154, 29426.09, 8484.57, -187500.02, -187500.02, -187500.02, -187500.02, -187500.02, -187500.02, 0.000, 0.000, 0.000, 02:36:35.854
155, 29433.47, 8505.31, -187500.02, -187500.02, -187500.02, -187500.02, -187500.02, -187500.02, 0.210, 0.990, -0.078, 02:36:35.854
156, 29427.81, 8504.64, -187500.02, -187500.02, -187500.02, -187500.02, -187500.02, -187500.02, 0.000, 0.000, 0.000, 02:36:35.854
157, 29401.46, 8475.71, -187500.02, -187500.02, -187500.02, -187500.02, -187500.02, -187500.02, 0.000, 0.000, 0.000, 02:36:35.854
158, 29413.24, 8465.34, -187500.02, -187500.02, -187500.02, -187500.02, -187500.02, -187500.02, 0.000, 0.000, 0.000, 02:36:35.854
159, 29435.46, 8493.19, -187500.02, -187500.02, -187500.02, -187500.02, -187500.02, -187500.02, 0.000, 0.000, 0.000, 02:36:35.855
160, 29428.82, 8491.05, -187500.02, -187500.02, -187500.02, -187500.02, -187500.02, -187500.02, 0.000, 0.000, 0.000, 02:36:35.855
161, 29411.61, 8491.83, -187500.02, -187500.02, -187500.02, -187500.02, -187500.02, -187500.02, 0.000, 0.000, 0.000, 02:36:35.855
162, 29416.10, 8478.78, -187500.02, -187500.02, -187500.02, -187500.02, -187500.02, -187500.02, 0.000, 0.000, 0.000, 02:36:35.855
163, 29423.08, 8483.56, -187500.02, -187500.02, -187500.02, -187500.02, -187500.02, -187500.02, 0.000, 0.000, 0.000, 02:36:35.855
164, 29419.79, 8487.49, -187500.02, -187500.02, -187500.02, -187500.02, -187500.02, -187500.02, 0.000, 0.000, 0.000, 02:36:35.855
165, 29390.93, 8456.80, -187500.02, -187500.02, -187500.02, -187500.02, -187500.02, -187500.02, 0.214, 0.996, -0.084, 02:36:35.855
166, 29393.97, 8461.34, -187500.02, -187500.02, -187500.02, -187500.02, -187500.02, -187500.02, 0.000, 0.000, 0.000, 02:36:35.856
167, 29425.27, 8492.23, -187500.02, -187500.02, -187500.02, -187500.02, -187500.02, -187500.02, 0.000, 0.000, 0.000, 02:36:35.856
168, 29422.07, 8491.83, -187500.02, -187500.02, -187500.02, -187500.02, -187500.02, -187500.02, 0.000, 0.000, 0.000, 02:36:35.856
169, 29400.95, 8481.37, -187500.02, -187500.02, -187500.02, -187500.02, -187500.02, -187500.02, 0.000, 0.000, 0.000, 02:36:35.856
170, 29387.65, 8447.24, -187500.02, -187500.02, -187500.02, -187500.02, -187500.02, -187500.02, 0.000, 0.000, 0.000, 02:36:35.856
171, 29422.07, 8479.71, -187500.02, -187500.02, -187500.02, -187500.02, -187500.02, -187500.02, 0.000, 0.000, 0.000, 02:36:35.856
172, 29426.32, 8495.16, -187500.02, -187500.02, -187500.02, -187500.02, -187500.02, -187500.02, 0.000, 0.000, 0.000, 02:36:35.856
173, 29406.33, 8476.50, -187500.02, -187500.02, -187500.02, -187500.02, -187500.02, -187500.02, 0.000, 0.000, 0.000, 02:36:35.856
174, 29395.52, 8451.93, -187500.02, -187500.02, -187500.02, -187500.02, -187500.02, -187500.02, 0.000, 0.000, 0.000, 02:36:35.857
175, 29429.89, 8472.52, -187500.02, -187500.02, -187500.02, -187500.02, -187500.02, -187500.02, 0.212, 0.996, -0.088, 02:36:35.857
176, 29454.99, 8486.35, -187500.02, -187500.02, -187500.02, -187500.02, -187500.02, -187500.02, 0.000, 0.000, 0.000, 02:36:35.857
177, 29427.32, 8482.51, -187500.02, -187500.02, -187500.02, -187500.02, -187500.02, -187500.02, 0.000, 0.000, 0.000, 02:36:35.857
178, 29394.13, 8460.16, -187500.02, -187500.02, -187500.02, -187500.02, -187500.02, -187500.02, 0.000, 0.000, 0.000, 02:36:35.857
179, 29422.56, 8484.70, -187500.02, -187500.02, -187500.02, -187500.02, -187500.02, -187500.02, 0.000, 0.000, 0.000, 02:36:35.857
180, 29440.46, 8494.11, -187500.02, -187500.02, -187500.02, -187500.02, -187500.02, -187500.02, 0.000, 0.000, 0.000, 02:36:35.857
181, 29416.19, 8472.18, -187500.02, -187500.02, -187500.02, -187500.02, -187500.02, -187500.02, 0.000, 0.000, 0.000, 02:36:35.858
182, 29385.23, 8447.73, -187500.02, -187500.02, -187500.02, -187500.02, -187500.02, -187500.02, 0.000, 0.000, 0.000, 02:36:35.858
183, 29397.59, 8451.22, -187500.02, -187500.02, -187500.02, -187500.02, -187500.02, -187500.02, 0.000, 0.000, 0.000, 02:36:35.858
184, 29426.32, 8482.02, -187500.02, -187500.02, -187500.02, -187500.02, -187500.02, -187500.02, 0.000, 0.000, 0.000, 02:36:35.858
185, 29426.47, 8495.38, -187500.02, -187500.02, -187500.02, -187500.02, -187500.02, -187500.02, 0.212, 0.996, -0.088, 02:36:35.858
186, 29389.17, 8462.64, -187500.02, -187500.02, -187500.02, -187500.02, -187500.02, -187500.02, 0.000, 0.000, 0.000, 02:36:35.858
187, 29399.09, 8440.60, -187500.02, -187500.02, -187500.02, -187500.02, -187500.02, -187500.02, 0.000, 0.000, 0.000, 02:36:35.858
188, 29434.36, 8476.23, -187500.02, -187500.02, -187500.02, -187500.02, -187500.02, -187500.02, 0.000, 0.000, 0.000, 02:36:35.858
189, 29426.99, 8486.20, -187500.02, -187500.02, -187500.02, -187500.02, -187500.02, -187500.02, 0.000, 0.000, 0.000, 02:36:35.859
190, 29401.64, 8462.86, -187500.02, -187500.02, -187500.02, -187500.02, -187500.02, -187500.02, 0.000, 0.000, 0.000, 02:36:35.859
191, 29397.04, 8447.82, -187500.02, -187500.02, -187500.02, -187500.02, -187500.02, -187500.02, 0.000, 0.000, 0.000, 02:36:35.859
192, 29423.43, 8459.40, -187500.02, -187500.02, -187500.02, -187500.02, -187500.02, -187500.02, 0.000, 0.000, 0.000, 02:36:35.859
193, 29420.04, 8467.94, -187500.02, -187500.02, -187500.02, -187500.02, -187500.02, -187500.02, 0.000, 0.000, 0.000, 02:36:35.859
194, 29412.93, 8466.46, -187500.02, -187500.02, -187500.02, -187500.02, -187500.02, -187500.02, 0.212, 0.990, -0.086, 02:36:35.859
195, 29386.78, 8437.29, -187500.02, -187500.02, -187500.02, -187500.02, -187500.02, -187500.02, 0.000, 0.000, 0.000, 02:36:35.859
196, 29419.83, 8466.15, -187500.02, -187500.02, -187500.02, -187500.02, -187500.02, -187500.02, 0.000, 0.000, 0.000, 02:36:35.860
197, 29430.52, 8492.08, -187500.02, -187500.02, -187500.02, -187500.02, -187500.02, -187500.02, 0.000, 0.000, 0.000, 02:36:35.860
198, 29395.90, 8454.03, -187500.02, -187500.02, -187500.02, -187500.02, -187500.02, -187500.02, 0.000, 0.000, 0.000, 02:36:35.860
199, 29380.72, 8422.88, -187500.02, -187500.02, -187500.02, -187500.02, -187500.02, -187500.02, 0.000, 0.000, 0.000, 02:36:35.860
200, 29408.99, 8428.55, -187500.02, -187500.02, -187500.02, -187500.02, -187500.02, -187500.02, 0.000, 0.000, 0.000, 02:36:35.860
201, 29416.59, 8444.51, -187500.02, -187500.02, -187500.02, -187500.02, -187500.02, -187500.02, 0.000, 0.000, 0.000, 02:36:35.860
202, 29408.93, 8480.01, -187500.02, -187500.02, -187500.02, -187500.02, -187500.02, -187500.02, 0.000, 0.000, 0.000, 02:36:35.860
203, 29385.68, 8461.86, -187500.02, -187500.02, -187500.02, -187500.02, -187500.02, -187500.02, 0.000, 0.000, 0.000, 02:36:35.860
204, 29410.51, 8470.66, -187500.02, -187500.02, -187500.02, -187500.02, -187500.02, -187500.02, 0.212, 0.990, -0.084, 02:36:35.861
205, 29442.59, 8485.42, -187500.02, -187500.02, -187500.02, -187500.02, -187500.02, -187500.02, 0.000, 0.000, 0.000, 02:36:35.861
206, 29430.43, 8465.68, -187500.02, -187500.02, -187500.02, -187500.02, -187500.02, -187500.02, 0.000, 0.000, 0.000, 02:36:35.861
207, 29390.29, 8436.84, -187500.02, -187500.02, -187500.02, -187500.02, -187500.02, -187500.02, 0.000, 0.000, 0.000, 02:36:35.861
208, 29399.45, 8439.26, -187500.02, -187500.02, -187500.02, -187500.02, -187500.02, -187500.02, 0.000, 0.000, 0.000, 02:36:35.861
209, 29417.49, 8464.74, -187500.02, -187500.02, -187500.02, -187500.02, -187500.02, -187500.02, 0.000, 0.000, 0.000, 02:36:35.861
210, 29409.93, 8457.23, -187500.02, -187500.02, -187500.02, -187500.02, -187500.02, -187500.02, 0.000, 0.000, 0.000, 02:36:35.861
211, 29391.20, 8439.97, -187500.02, -187500.02, -187500.02, -187500.02, -187500.02, -187500.02, 0.000, 0.000, 0.000, 02:36:35.861
212, 29386.66, 8441.49, -187500.02, -187500.02, -187500.02, -187500.02, -187500.02, -187500.02, 0.000, 0.000, 0.000, 02:36:35.862
213, 29405.93, 8461.16, -187500.02, -187500.02, -187500.02, -187500.02, -187500.02, -187500.02, 0.000, 0.000, 0.000, 02:36:35.862
214, 29411.12, 8468.03, -187500.02, -187500.02, -187500.02, -187500.02, -187500.02, -187500.02, 0.214, 0.990, -0.086, 02:36:35.862
215, 29414.00, 8447.24, -187500.02, -187500.02, -187500.02, -187500.02, -187500.02, -187500.02, 0.000, 0.000, 0.000, 02:36:35.862
216, 29423.68, 8446.79, -187500.02, -187500.02, -187500.02, -187500.02, -187500.02, -187500.02, 0.000, 0.000, 0.000, 02:36:35.862
217, 29448.06, 8492.46, -187500.02, -187500.02, -187500.02, -187500.02, -187500.02, -187500.02, 0.000, 0.000, 0.000, 02:36:35.862
218, 29456.31, 8491.87, -187500.02, -187500.02, -187500.02, -187500.02, -187500.02, -187500.02, 0.000, 0.000, 0.000, 02:36:35.862
219, 29417.53, 8437.31, -187500.02, -187500.02, -187500.02, -187500.02, -187500.02, -187500.02, 0.000, 0.000, 0.000, 02:36:35.862
220, 29388.59, 8410.49, -187500.02, -187500.02, -187500.02, -187500.02, -187500.02, -187500.02, 0.000, 0.000, 0.000, 02:36:35.862
221, 29413.64, 8452.89, -187500.02, -187500.02, -187500.02, -187500.02, -187500.02, -187500.02, 0.000, 0.000, 0.000, 02:36:35.863
222, 29421.80, 8469.39, -187500.02, -187500.02, -187500.02, -187500.02, -187500.02, -187500.02, 0.000, 0.000, 0.000, 02:36:35.863
223, 29403.72, 8452.58, -187500.02, -187500.02, -187500.02, -187500.02, -187500.02, -187500.02, 0.000, 0.000, 0.000, 02:36:35.863
224, 29379.38, 8420.21, -187500.02, -187500.02, -187500.02, -187500.02, -187500.02, -187500.02, 0.214, 0.996, -0.088, 02:36:35.863
225, 29404.68, 8442.48, -187500.02, -187500.02, -187500.02, -187500.02, -187500.02, -187500.02, 0.000, 0.000, 0.000, 02:36:36.329
226, 29419.21, 8458.97, -187500.02, -187500.02, -187500.02, -187500.02, -187500.02, -187500.02, 0.000, 0.000, 0.000, 02:36:36.329
227, 29404.63, 8446.52, -187500.02, -187500.02, -187500.02, -187500.02, -187500.02, -187500.02, 0.000, 0.000, 0.000, 02:36:36.329
228, 29378.33, 8421.00, -187500.02, -187500.02, -187500.02, -187500.02, -187500.02, -187500.02, 0.000, 0.000, 0.000, 02:36:36.329
229, 29396.10, 8439.71, -187500.02, -187500.02, -187500.02, -187500.02, -187500.02, -187500.02, 0.000, 0.000, 0.000, 02:36:36.329
230, 29418.61, 8459.98, -187500.02, -187500.02, -187500.02, -187500.02, -187500.02, -187500.02, 0.000, 0.000, 0.000, 02:36:36.329
231, 29415.21, 8451.55, -187500.02, -187500.02, -187500.02, -187500.02, -187500.02, -187500.02, 0.000, 0.000, 0.000, 02:36:36.330
232, 29386.60, 8405.95, -187500.02, -187500.02, -187500.02, -187500.02, -187500.02, -187500.02, 0.000, 0.000, 0.000, 02:36:36.330
233, 29401.55, 8439.15, -187500.02, -187500.02, -187500.02, -187500.02, -187500.02, -187500.02, 0.000, 0.000, 0.000, 02:36:36.330
234, 29427.54, 8467.94, -187500.02, -187500.02, -187500.02, -187500.02, -187500.02, -187500.02, 0.210, 0.996, -0.086, 02:36:36.330
235, 29424.82, 8463.67, -187500.02, -187500.02, -187500.02, -187500.02, -187500.02, -187500.02, 0.000, 0.000, 0.000, 02:36:36.330
236, 29392.68, 8441.63, -187500.02, -187500.02, -187500.02, -187500.02, -187500.02, -187500.02, 0.000, 0.000, 0.000, 02:36:36.330
237, 29400.95, 8441.65, -187500.02, -187500.02, -187500.02, -187500.02, -187500.02, -187500.02, 0.000, 0.000, 0.000, 02:36:36.330
238, 29428.06, 8465.52, -187500.02, -187500.02, -187500.02, -187500.02, -187500.02, -187500.02, 0.000, 0.000, 0.000, 02:36:36.330
239, 29403.21, 8443.95, -187500.02, -187500.02, -187500.02, -187500.02, -187500.02, -187500.02, 0.000, 0.000, 0.000, 02:36:36.330
240, 29382.42, 8407.43, -187500.02, -187500.02, -187500.02, -187500.02, -187500.02, -187500.02, 0.000, 0.000, 0.000, 02:36:36.331
241, 29391.69, 8414.16, -187500.02, -187500.02, -187500.02, -187500.02, -187500.02, -187500.02, 0.000, 0.000, 0.000, 02:36:36.331
242, 29426.81, 8460.78, -187500.02, -187500.02, -187500.02, -187500.02, -187500.02, -187500.02, 0.000, 0.000, 0.000, 02:36:36.331
243, 29418.78, 8449.85, -187500.02, -187500.02, -187500.02, -187500.02, -187500.02, -187500.02, 0.000, 0.000, 0.000, 02:36:36.331
244, 29394.04, 8418.05, -187500.02, -187500.02, -187500.02, -187500.02, -187500.02, -187500.02, 0.208, 0.998, -0.084, 02:36:36.331
245, 29383.27, 8404.50, -187500.02, -187500.02, -187500.02, -187500.02, -187500.02, -187500.02, 0.000, 0.000, 0.000, 02:36:36.331
246, 29408.17, 8436.35, -187500.02, -187500.02, -187500.02, -187500.02, -187500.02, -187500.02, 0.000, 0.000, 0.000, 02:36:36.332
247, 29406.83, 8428.71, -187500.02, -187500.02, -187500.02, -187500.02, -187500.02, -187500.02, 0.000, 0.000, 0.000, 02:36:36.332
248, 29400.93, 8414.96, -187500.02, -187500.02, -187500.02, -187500.02, -187500.02, -187500.02, 0.000, 0.000, 0.000, 02:36:36.332
249, 29377.41, 8411.63, -187500.02, -187500.02, -187500.02, -187500.02, -187500.02, -187500.02, 0.000, 0.000, 0.000, 02:36:36.332
250, 29398.64, 8431.88, -187500.02, -187500.02, -187500.02, -187500.02, -187500.02, -187500.02, 0.000, 0.000, 0.000, 02:36:36.332
251, 29417.09, 8455.51, -187500.02, -187500.02, -187500.02, -187500.02, -187500.02, -187500.02, 0.000, 0.000, 0.000, 02:36:36.332
252, 29414.69, 8441.85, -187500.02, -187500.02, -187500.02, -187500.02, -187500.02, -187500.02, 0.000, 0.000, 0.000, 02:36:36.332
253, 29380.38, 8410.07, -187500.02, -187500.02, -187500.02, -187500.02, -187500.02, -187500.02, 0.204, 0.994, -0.088, 02:36:36.333
254, 29405.51, 8426.54, -187500.02, -187500.02, -187500.02, -187500.02, -187500.02, -187500.02, 0.000, 0.000, 0.000, 02:36:36.333
255, 29444.31, 8460.45, -187500.02, -187500.02, -187500.02, -187500.02, -187500.02, -187500.02, 0.000, 0.000, 0.000, 02:36:36.333
0, 29429.78, 8459.04, -187500.02, -187500.02, -187500.02, -187500.02, -187500.02, -187500.02, 0.000, 0.000, 0.000, 02:36:36.333
1, 29394.71, 8413.69, -187500.02, -187500.02, -187500.02, -187500.02, -187500.02, -187500.02, 0.000, 0.000, 0.000, 02:36:36.333
2, 29395.70, 8419.30, -187500.02, -187500.02, -187500.02, -187500.02, -187500.02, -187500.02, 0.000, 0.000, 0.000, 02:36:36.333
3, 29423.19, 8438.86, -187500.02, -187500.02, -187500.02, -187500.02, -187500.02, -187500.02, 0.000, 0.000, 0.000, 02:36:36.334
4, 29420.82, 8418.31, -187500.02, -187500.02, -187500.02, -187500.02, -187500.02, -187500.02, 0.000, 0.000, 0.000, 02:36:36.334
5, 29406.87, 8425.29, -187500.02, -187500.02, -187500.02, -187500.02, -187500.02, -187500.02, 0.000, 0.000, 0.000, 02:36:36.334
6, 29396.86, 8421.04, -187500.02, -187500.02, -187500.02, -187500.02, -187500.02, -187500.02, 0.000, 0.000, 0.000, 02:36:36.334
7, 29422.38, 8435.08, -187500.02, -187500.02, -187500.02, -187500.02, -187500.02, -187500.02, 0.206, 0.990, -0.086, 02:36:36.334
8, 29420.13, 8449.05, -187500.02, -187500.02, -187500.02, -187500.02, -187500.02, -187500.02, 0.000, 0.000, 0.000, 02:36:36.334
9, 29391.89, 8430.43, -187500.02, -187500.02, -187500.02, -187500.02, -187500.02, -187500.02, 0.000, 0.000, 0.000, 02:36:36.335
10, 29394.46, 8413.62, -187500.02, -187500.02, -187500.02, -187500.02, -187500.02, -187500.02, 0.000, 0.000, 0.000, 02:36:36.335
11, 29418.20, 8428.57, -187500.02, -187500.02, -187500.02, -187500.02, -187500.02, -187500.02, 0.000, 0.000, 0.000, 02:36:36.335
12, 29420.66, 8437.56, -187500.02, -187500.02, -187500.02, -187500.02, -187500.02, -187500.02, 0.000, 0.000, 0.000, 02:36:36.335
13, 29399.70, 8420.91, -187500.02, -187500.02, -187500.02, -187500.02, -187500.02, -187500.02, 0.000, 0.000, 0.000, 02:36:36.335
14, 29385.64, 8396.63, -187500.02, -187500.02, -187500.02, -187500.02, -187500.02, -187500.02, 0.000, 0.000, 0.000, 02:36:36.335
15, 29412.71, 8405.78, -187500.02, -187500.02, -187500.02, -187500.02, -187500.02, -187500.02, 0.000, 0.000, 0.000, 02:36:36.336
16, 29420.59, 8435.62, -187500.02, -187500.02, -187500.02, -187500.02, -187500.02, -187500.02, 0.000, 0.000, 0.000, 02:36:36.336
17, 29413.53, 8439.42, -187500.02, -187500.02, -187500.02, -187500.02, -187500.02, -187500.02, 0.208, 0.992, -0.084, 02:36:36.336
18, 29384.70, 8407.74, -187500.02, -187500.02, -187500.02, -187500.02, -187500.02, -187500.02, 0.000, 0.000, 0.000, 02:36:36.336
19, 29417.22, 8431.77, -187500.02, -187500.02, -187500.02, -187500.02, -187500.02, -187500.02, 0.000, 0.000, 0.000, 02:36:36.336
20, 29430.38, 8445.29, -187500.02, -187500.02, -187500.02, -187500.02, -187500.02, -187500.02, 0.000, 0.000, 0.000, 02:36:36.336
21, 29407.99, 8400.99, -187500.02, -187500.02, -187500.02, -187500.02, -187500.02, -187500.02, 0.000, 0.000, 0.000, 02:36:36.336
22, 29378.37, 8373.14, -187500.02, -187500.02, -187500.02, -187500.02, -187500.02, -187500.02, 0.000, 0.000, 0.000, 02:36:36.337
23, 29402.09, 8430.07, -187500.02, -187500.02, -187500.02, -187500.02, -187500.02, -187500.02, 0.000, 0.000, 0.000, 02:36:36.337
24, 29413.82, 8443.91, -187500.02, -187500.02, -187500.02, -187500.02, -187500.02, -187500.02, 0.000, 0.000, 0.000, 02:36:36.337
25, 29399.81, 8431.14, -187500.02, -187500.02, -187500.02, -187500.02, -187500.02, -187500.02, 0.000, 0.000, 0.000, 02:36:36.337
26, 29394.44, 8404.55, -187500.02, -187500.02, -187500.02, -187500.02, -187500.02, -187500.02, 0.000, 0.000, 0.000, 02:36:36.337
27, 29405.46, 8401.64, -187500.02, -187500.02, -187500.02, -187500.02, -187500.02, -187500.02, 0.210, 0.996, -0.084, 02:36:36.337
28, 29417.04, 8415.72, -187500.02, -187500.02, -187500.02, -187500.02, -187500.02, -187500.02, 0.000, 0.000, 0.000, 02:36:36.337
29, 29407.54, 8422.58, -187500.02, -187500.02, -187500.02, -187500.02, -187500.02, -187500.02, 0.000, 0.000, 0.000, 02:36:36.337
30, 29399.76, 8416.66, -187500.02, -187500.02, -187500.02, -187500.02, -187500.02, -187500.02, 0.000, 0.000, 0.000, 02:36:36.338
31, 29402.38, 8418.76, -187500.02, -187500.02, -187500.02, -187500.02, -187500.02, -187500.02, 0.000, 0.000, 0.000, 02:36:36.338
32, 29434.10, 8442.90, -187500.02, -187500.02, -187500.02, -187500.02, -187500.02, -187500.02, 0.000, 0.000, 0.000, 02:36:36.338
33, 29429.78, 8460.09, -187500.02, -187500.02, -187500.02, -187500.02, -187500.02, -187500.02, 0.000, 0.000, 0.000, 02:36:36.338
34, 29401.66, 8432.62, -187500.02, -187500.02, -187500.02, -187500.02, -187500.02, -187500.02, 0.000, 0.000, 0.000, 02:36:36.338
35, 29390.26, 8407.72, -187500.02, -187500.02, -187500.02, -187500.02, -187500.02, -187500.02, 0.000, 0.000, 0.000, 02:36:36.338
36, 29441.25, 8452.60, -187500.02, -187500.02, -187500.02, -187500.02, -187500.02, -187500.02, 0.000, 0.000, 0.000, 02:36:36.339
37, 29430.41, 8461.99, -187500.02, -187500.02, -187500.02, -187500.02, -187500.02, -187500.02, 0.208, 0.994, -0.084, 02:36:36.339
38, 29414.85, 8458.88, -187500.02, -187500.02, -187500.02, -187500.02, -187500.02, -187500.02, 0.000, 0.000, 0.000, 02:36:36.339
39, 29399.76, 8446.14, -187500.02, -187500.02, -187500.02, -187500.02, -187500.02, -187500.02, 0.000, 0.000, 0.000, 02:36:36.339
40, 29424.30, 8474.02, -187500.02, -187500.02, -187500.02, -187500.02, -187500.02, -187500.02, 0.000, 0.000, 0.000, 02:36:36.339
41, 29434.38, 8493.35, -187500.02, -187500.02, -187500.02, -187500.02, -187500.02, -187500.02, 0.000, 0.000, 0.000, 02:36:36.340
42, 29420.24, 8466.71, -187500.02, -187500.02, -187500.02, -187500.02, -187500.02, -187500.02, 0.000, 0.000, 0.000, 02:36:36.340
43, 29395.02, 8449.05, -187500.02, -187500.02, -187500.02, -187500.02, -187500.02, -187500.02, 0.000, 0.000, 0.000, 02:36:36.340
44, 29410.96, 8477.10, -187500.02, -187500.02, -187500.02, -187500.02, -187500.02, -187500.02, 0.000, 0.000, 0.000, 02:36:36.340
45, 29452.09, 8503.05, -187500.02, -187500.02, -187500.02, -187500.02, -187500.02, -187500.02, 0.000, 0.000, 0.000, 02:36:36.340
46, 29458.90, 8500.59, -187500.02, -187500.02, -187500.02, -187500.02, -187500.02, -187500.02, 0.000, 0.000, 0.000, 02:36:36.340
47, 29433.60, 8502.56, -187500.02, -187500.02, -187500.02, -187500.02, -187500.02, -187500.02, 0.212, 0.994, -0.086, 02:36:36.340
48, 29430.61, 8505.06, -187500.02, -187500.02, -187500.02, -187500.02, -187500.02, -187500.02, 0.000, 0.000, 0.000, 02:36:36.340
49, 29459.26, 8522.99, -187500.02, -187500.02, -187500.02, -187500.02, -187500.02, -187500.02, 0.000, 0.000, 0.000, 02:36:36.341
50, 29452.27, 8513.58, -187500.02, -187500.02, -187500.02, -187500.02, -187500.02, -187500.02, 0.000, 0.000, 0.000, 02:36:36.341
51, 29413.40, 8458.57, -187500.02, -187500.02, -187500.02, -187500.02, -187500.02, -187500.02, 0.000, 0.000, 0.000, 02:36:36.341
52, 29411.27, 8490.71, -187500.02, -187500.02, -187500.02, -187500.02, -187500.02, -187500.02, 0.000, 0.000, 0.000, 02:36:36.341
53, 29431.55, 8512.93, -187500.02, -187500.02, -187500.02, -187500.02, -187500.02, -187500.02, 0.000, 0.000, 0.000, 02:36:36.341
54, 29443.46, 8508.64, -187500.02, -187500.02, -187500.02, -187500.02, -187500.02, -187500.02, 0.000, 0.000, 0.000, 02:36:36.341
55, 29414.56, 8481.55, -187500.02, -187500.02, -187500.02, -187500.02, -187500.02, -187500.02, 0.000, 0.000, 0.000, 02:36:36.341
56, 29409.62, 8466.35, -187500.02, -187500.02, -187500.02, -187500.02, -187500.02, -187500.02, 0.210, 0.996, -0.086, 02:36:36.341
57, 29443.33, 8493.77, -187500.02, -187500.02, -187500.02, -187500.02, -187500.02, -187500.02, 0.000, 0.000, 0.000, 02:36:36.341
58, 29433.87, 8496.86, -187500.02, -187500.02, -187500.02, -187500.02, -187500.02, -187500.02, 0.000, 0.000, 0.000, 02:36:36.342
59, 29403.54, 8466.57, -187500.02, -187500.02, -187500.02, -187500.02, -187500.02, -187500.02, 0.000, 0.000, 0.000, 02:36:36.342
60, 29401.17, 8459.87, -187500.02, -187500.02, -187500.02, -187500.02, -187500.02, -187500.02, 0.000, 0.000, 0.000, 02:36:36.342
61, 29441.34, 8520.06, -187500.02, -187500.02, -187500.02, -187500.02, -187500.02, -187500.02, 0.000, 0.000, 0.000, 02:36:36.342
62, 29449.00, 8518.23, -187500.02, -187500.02, -187500.02, -187500.02, -187500.02, -187500.02, 0.000, 0.000, 0.000, 02:36:36.342
63, 29424.15, 8483.92, -187500.02, -187500.02, -187500.02, -187500.02, -187500.02, -187500.02, 0.000, 0.000, 0.000, 02:36:36.342
64, 29412.44, 8485.44, -187500.02, -187500.02, -187500.02, -187500.02, -187500.02, -187500.02, 0.000, 0.000, 0.000, 02:36:36.342
65, 29450.12, 8498.11, -187500.02, -187500.02, -187500.02, -187500.02, -187500.02, -187500.02, 0.000, 0.000, 0.000, 02:36:36.342
66, 29449.05, 8503.68, -187500.02, -187500.02, -187500.02, -187500.02, -187500.02, -187500.02, 0.210, 0.996, -0.084, 02:36:36.342
67, 29414.92, 8513.51, -187500.02, -187500.02, -187500.02, -187500.02, -187500.02, -187500.02, 0.000, 0.000, 0.000, 02:36:36.342
68, 29394.96, 8490.44, -187500.02, -187500.02, -187500.02, -187500.02, -187500.02, -187500.02, 0.000, 0.000, 0.000, 02:36:36.343
69, 29419.81, 8504.28, -187500.02, -187500.02, -187500.02, -187500.02, -187500.02, -187500.02, 0.000, 0.000, 0.000, 02:36:36.343
70, 29433.25, 8521.54, -187500.02, -187500.02, -187500.02, -187500.02, -187500.02, -187500.02, 0.000, 0.000, 0.000, 02:36:36.343
71, 29421.51, 8517.87, -187500.02, -187500.02, -187500.02, -187500.02, -187500.02, -187500.02, 0.000, 0.000, 0.000, 02:36:36.343
72, 29402.67, 8495.88, -187500.02, -187500.02, -187500.02, -187500.02, -187500.02, -187500.02, 0.000, 0.000, 0.000, 02:36:36.343
73, 29419.39, 8501.42, -187500.02, -187500.02, -187500.02, -187500.02, -187500.02, -187500.02, 0.000, 0.000, 0.000, 02:36:36.343
74, 29444.62, 8525.38, -187500.02, -187500.02, -187500.02, -187500.02, -187500.02, -187500.02, 0.000, 0.000, 0.000, 02:36:36.343
75, 29434.18, 8517.65, -187500.02, -187500.02, -187500.02, -187500.02, -187500.02, -187500.02, 0.000, 0.000, 0.000, 02:36:36.343
76, 29403.03, 8492.10, -187500.02, -187500.02, -187500.02, -187500.02, -187500.02, -187500.02, 0.216, 0.994, -0.086, 02:36:36.344
77, 29399.83, 8481.32, -187500.02, -187500.02, -187500.02, -187500.02, -187500.02, -187500.02, 0.000, 0.000, 0.000, 02:36:36.344
78, 29430.18, 8492.81, -187500.02, -187500.02, -187500.02, -187500.02, -187500.02, -187500.02, 0.000, 0.000, 0.000, 02:36:36.344
79, 29427.99, 8492.23, -187500.02, -187500.02, -187500.02, -187500.02, -187500.02, -187500.02, 0.000, 0.000, 0.000, 02:36:36.344
80, 29414.07, 8489.39, -187500.02, -187500.02, -187500.02, -187500.02, -187500.02, -187500.02, 0.000, 0.000, 0.000, 02:36:36.344
81, 29412.46, 8499.32, -187500.02, -187500.02, -187500.02, -187500.02, -187500.02, -187500.02, 0.000, 0.000, 0.000, 02:36:36.344
82, 29443.75, 8526.36, -187500.02, -187500.02, -187500.02, -187500.02, -187500.02, -187500.02, 0.000, 0.000, 0.000, 02:36:36.344
83, 29436.98, 8525.16, -187500.02, -187500.02, -187500.02, -187500.02, -187500.02, -187500.02, 0.000, 0.000, 0.000, 02:36:36.344
84, 29413.87, 8495.65, -187500.02, -187500.02, -187500.02, -187500.02, -187500.02, -187500.02, 0.000, 0.000, 0.000, 02:36:36.344
85, 29392.10, 8472.72, -187500.02, -187500.02, -187500.02, -187500.02, -187500.02, -187500.02, 0.000, 0.000, 0.000, 02:36:36.345
86, 29423.57, 8502.63, -187500.02, -187500.02, -187500.02, -187500.02, -187500.02, -187500.02, 0.208, 0.998, -0.084, 02:36:36.345
87, 29431.79, 8511.16, -187500.02, -187500.02, -187500.02, -187500.02, -187500.02, -187500.02, 0.000, 0.000, 0.000, 02:36:36.345
88, 29417.98, 8491.74, -187500.02, -187500.02, -187500.02, -187500.02, -187500.02, -187500.02, 0.000, 0.000, 0.000, 02:36:36.345
89, 29402.13, 8480.74, -187500.02, -187500.02, -187500.02, -187500.02, -187500.02, -187500.02, 0.000, 0.000, 0.000, 02:36:36.345
90, 29433.16, 8495.41, -187500.02, -187500.02, -187500.02, -187500.02, -187500.02, -187500.02, 0.000, 0.000, 0.000, 02:36:36.808
91, 29438.36, 8506.02, -187500.02, -187500.02, -187500.02, -187500.02, -187500.02, -187500.02, 0.000, 0.000, 0.000, 02:36:36.808
92, 29425.36, 8512.62, -187500.02, -187500.02, -187500.02, -187500.02, -187500.02, -187500.02, 0.000, 0.000, 0.000, 02:36:36.808
93, 29405.71, 8481.77, -187500.02, -187500.02, -187500.02, -187500.02, -187500.02, -187500.02, 0.000, 0.000, 0.000, 02:36:36.808
94, 29430.83, 8491.36, -187500.02, -187500.02, -187500.02, -187500.02, -187500.02, -187500.02, 0.000, 0.000, 0.000, 02:36:36.808
95, 29441.29, 8488.83, -187500.02, -187500.02, -187500.02, -187500.02, -187500.02, -187500.02, 0.000, 0.000, 0.000, 02:36:36.809
96, 29423.03, 8461.07, -187500.02, -187500.02, -187500.02, -187500.02, -187500.02, -187500.02, 0.202, 0.994, -0.082, 02:36:36.809
97, 29404.12, 8464.92, -187500.02, -187500.02, -187500.02, -187500.02, -187500.02, -187500.02, 0.000, 0.000, 0.000, 02:36:36.809
98, 29416.84, 8507.27, -187500.02, -187500.02, -187500.02, -187500.02, -187500.02, -187500.02, 0.000, 0.000, 0.000, 02:36:36.809
99, 29435.82, 8521.18, -187500.02, -187500.02, -187500.02, -187500.02, -187500.02, -187500.02, 0.000, 0.000, 0.000, 02:36:36.809
100, 29429.56, 8516.66, -187500.02, -187500.02, -187500.02, -187500.02, -187500.02, -187500.02, 0.000, 0.000, 0.000, 02:36:36.809
101, 29404.70, 8492.75, -187500.02, -187500.02, -187500.02, -187500.02, -187500.02, -187500.02, 0.000, 0.000, 0.000, 02:36:36.809
102, 29408.41, 8486.02, -187500.02, -187500.02, -187500.02, -187500.02, -187500.02, -187500.02, 0.000, 0.000, 0.000, 02:36:36.810
103, 29421.44, 8491.38, -187500.02, -187500.02, -187500.02, -187500.02, -187500.02, -187500.02, 0.000, 0.000, 0.000, 02:36:36.810
104, 29425.96, 8492.12, -187500.02, -187500.02, -187500.02, -187500.02, -187500.02, -187500.02, 0.000, 0.000, 0.000, 02:36:36.810
105, 29403.90, 8483.85, -187500.02, -187500.02, -187500.02, -187500.02, -187500.02, -187500.02, 0.000, 0.000, 0.000, 02:36:36.810
106, 29402.29, 8483.07, -187500.02, -187500.02, -187500.02, -187500.02, -187500.02, -187500.02, 0.198, 0.994, -0.086, 02:36:36.810
107, 29416.64, 8487.99, -187500.02, -187500.02, -187500.02, -187500.02, -187500.02, -187500.02, 0.000, 0.000, 0.000, 02:36:36.810
108, 29436.38, 8504.91, -187500.02, -187500.02, -187500.02, -187500.02, -187500.02, -187500.02, 0.000, 0.000, 0.000, 02:36:36.810
109, 29407.92, 8480.27, -187500.02, -187500.02, -187500.02, -187500.02, -187500.02, -187500.02, 0.000, 0.000, 0.000, 02:36:36.810
110, 29394.09, 8477.39, -187500.02, -187500.02, -187500.02, -187500.02, -187500.02, -187500.02, 0.000, 0.000, 0.000, 02:36:36.811
111, 29426.81, 8503.14, -187500.02, -187500.02, -187500.02, -187500.02, -187500.02, -187500.02, 0.000, 0.000, 0.000, 02:36:36.811
112, 29438.41, 8520.44, -187500.02, -187500.02, -187500.02, -187500.02, -187500.02, -187500.02, 0.000, 0.000, 0.000, 02:36:36.811
113, 29415.10, 8486.13, -187500.02, -187500.02, -187500.02, -187500.02, -187500.02, -187500.02, 0.000, 0.000, 0.000, 02:36:36.811
114, 29392.92, 8457.01, -187500.02, -187500.02, -187500.02, -187500.02, -187500.02, -187500.02, 0.000, 0.000, 0.000, 02:36:36.811
115, 29421.09, 8465.19, -187500.02, -187500.02, -187500.02, -187500.02, -187500.02, -187500.02, 0.204, 0.996, -0.086, 02:36:36.811
116, 29435.68, 8512.97, -187500.02, -187500.02, -187500.02, -187500.02, -187500.02, -187500.02, 0.000, 0.000, 0.000, 02:36:36.812
117, 29425.80, 8523.30, -187500.02, -187500.02, -187500.02, -187500.02, -187500.02, -187500.02, 0.000, 0.000, 0.000, 02:36:36.812
118, 29377.10, 8457.77, -187500.02, -187500.02, -187500.02, -187500.02, -187500.02, -187500.02, 0.000, 0.000, 0.000, 02:36:36.812
119, 29408.95, 8474.42, -187500.02, -187500.02, -187500.02, -187500.02, -187500.02, -187500.02, 0.000, 0.000, 0.000, 02:36:36.812
120, 29431.37, 8492.46, -187500.02, -187500.02, -187500.02, -187500.02, -187500.02, -187500.02, 0.000, 0.000, 0.000, 02:36:36.812
121, 29413.46, 8479.67, -187500.02, -187500.02, -187500.02, -187500.02, -187500.02, -187500.02, 0.000, 0.000, 0.000, 02:36:36.812
122, 29381.95, 8451.37, -187500.02, -187500.02, -187500.02, -187500.02, -187500.02, -187500.02, 0.000, 0.000, 0.000, 02:36:36.812
123, 29402.65, 8504.91, -187500.02, -187500.02, -187500.02, -187500.02, -187500.02, -187500.02, 0.000, 0.000, 0.000, 02:36:36.812
124, 29434.34, 8518.43, -187500.02, -187500.02, -187500.02, -187500.02, -187500.02, -187500.02, 0.000, 0.000, 0.000, 02:36:36.812
125, 29426.61, 8496.97, -187500.02, -187500.02, -187500.02, -187500.02, -187500.02, -187500.02, 0.202, 0.996, -0.082, 02:36:36.813
126, 29398.98, 8480.74, -187500.02, -187500.02, -187500.02, -187500.02, -187500.02, -187500.02, 0.000, 0.000, 0.000, 02:36:36.813
127, 29401.13, 8477.66, -187500.02, -187500.02, -187500.02, -187500.02, -187500.02, -187500.02, 0.000, 0.000, 0.000, 02:36:36.813
128, 29427.66, 8503.68, -187500.02, -187500.02, -187500.02, -187500.02, -187500.02, -187500.02, 0.000, 0.000, 0.000, 02:36:36.813
129, 29430.74, 8504.10, -187500.02, -187500.02, -187500.02, -187500.02, -187500.02, -187500.02, 0.000, 0.000, 0.000, 02:36:36.813
130, 29404.68, 8476.52, -187500.02, -187500.02, -187500.02, -187500.02, -187500.02, -187500.02, 0.000, 0.000, 0.000, 02:36:36.813
131, 29383.33, 8445.74, -187500.02, -187500.02, -187500.02, -187500.02, -187500.02, -187500.02, 0.000, 0.000, 0.000, 02:36:36.813
132, 29413.31, 8476.29, -187500.02, -187500.02, -187500.02, -187500.02, -187500.02, -187500.02, 0.000, 0.000, 0.000, 02:36:36.814
133, 29408.08, 8472.36, -187500.02, -187500.02, -187500.02, -187500.02, -187500.02, -187500.02, 0.000, 0.000, 0.000, 02:36:36.814
134, 29386.98, 8444.69, -187500.02, -187500.02, -187500.02, -187500.02, -187500.02, -187500.02, 0.000, 0.000, 0.000, 02:36:36.814
135, 29373.07, 8438.59, -187500.02, -187500.02, -187500.02, -187500.02, -187500.02, -187500.02, 0.206, 1.004, -0.086, 02:36:36.814
136, 29397.57, 8490.56, -187500.02, -187500.02, -187500.02, -187500.02, -187500.02, -187500.02, 0.000, 0.000, 0.000, 02:36:36.814
137, 29437.69, 8513.60, -187500.02, -187500.02, -187500.02, -187500.02, -187500.02, -187500.02, 0.000, 0.000, 0.000, 02:36:36.814
138, 29441.76, 8505.96, -187500.02, -187500.02, -187500.02, -187500.02, -187500.02, -187500.02, 0.000, 0.000, 0.000, 02:36:36.814
139, 29407.52, 8476.52, -187500.02, -187500.02, -187500.02, -187500.02, -187500.02, -187500.02, 0.000, 0.000, 0.000, 02:36:36.814
140, 29410.56, 8457.65, -187500.02, -187500.02, -187500.02, -187500.02, -187500.02, -187500.02, 0.000, 0.000, 0.000, 02:36:36.815
141, 29422.07, 8481.24, -187500.02, -187500.02, -187500.02, -187500.02, -187500.02, -187500.02, 0.000, 0.000, 0.000, 02:36:36.815
142, 29407.47, 8485.26, -187500.02, -187500.02, -187500.02, -187500.02, -187500.02, -187500.02, 0.000, 0.000, 0.000, 02:36:36.815
143, 29373.50, 8449.52, -187500.02, -187500.02, -187500.02, -187500.02, -187500.02, -187500.02, 0.000, 0.000, 0.000, 02:36:36.815
144, 29399.20, 8472.25, -187500.02, -187500.02, -187500.02, -187500.02, -187500.02, -187500.02, 0.000, 0.000, 0.000, 02:36:36.815
145, 29427.50, 8505.53, -187500.02, -187500.02, -187500.02, -187500.02, -187500.02, -187500.02, 0.206, 1.000, -0.082, 02:36:36.815
146, 29416.46, 8466.24, -187500.02, -187500.02, -187500.02, -187500.02, -187500.02, -187500.02, 0.000, 0.000, 0.000, 02:36:36.816
147, 29392.32, 8445.67, -187500.02, -187500.02, -187500.02, -187500.02, -187500.02, -187500.02, 0.000, 0.000, 0.000, 02:36:36.816
148, 29396.10, 8450.23, -187500.02, -187500.02, -187500.02, -187500.02, -187500.02, -187500.02, 0.000, 0.000, 0.000, 02:36:36.816
149, 29408.44, 8479.31, -187500.02, -187500.02, -187500.02, -187500.02, -187500.02, -187500.02, 0.000, 0.000, 0.000, 02:36:36.816
150, 29398.11, 8492.75, -187500.02, -187500.02, -187500.02, -187500.02, -187500.02, -187500.02, 0.000, 0.000, 0.000, 02:36:36.816
151, 29383.45, 8467.94, -187500.02, -187500.02, -187500.02, -187500.02, -187500.02, -187500.02, 0.000, 0.000, 0.000, 02:36:36.816
152, 29376.85, 8453.00, -187500.02, -187500.02, -187500.02, -187500.02, -187500.02, -187500.02, 0.000, 0.000, 0.000, 02:36:36.816
153, 29421.89, 8472.50, -187500.02, -187500.02, -187500.02, -187500.02, -187500.02, -187500.02, 0.000, 0.000, 0.000, 02:36:36.816
154, 29421.06, 8488.54, -187500.02, -187500.02, -187500.02, -187500.02, -187500.02, -187500.02, 0.000, 0.000, 0.000, 02:36:36.816
155, 29396.41, 8470.51, -187500.02, -187500.02, -187500.02, -187500.02, -187500.02, -187500.02, 0.212, 0.996, -0.086, 02:36:36.816
156, 29388.05, 8450.99, -187500.02, -187500.02, -187500.02, -187500.02, -187500.02, -187500.02, 0.000, 0.000, 0.000, 02:36:36.817
157, 29420.91, 8472.50, -187500.02, -187500.02, -187500.02, -187500.02, -187500.02, -187500.02, 0.000, 0.000, 0.000, 02:36:36.817
158, 29418.63, 8471.94, -187500.02, -187500.02, -187500.02, -187500.02, -187500.02, -187500.02, 0.000, 0.000, 0.000, 02:36:36.817
159, 29396.86, 8444.85, -187500.02, -187500.02, -187500.02, -187500.02, -187500.02, -187500.02, 0.000, 0.000, 0.000, 02:36:36.817
160, 29389.32, 8445.63, -187500.02, -187500.02, -187500.02, -187500.02, -187500.02, -187500.02, 0.000, 0.000, 0.000, 02:36:36.817
161, 29413.78, 8469.37, -187500.02, -187500.02, -187500.02, -187500.02, -187500.02, -187500.02, 0.000, 0.000, 0.000, 02:36:36.817
162, 29425.82, 8485.57, -187500.02, -187500.02, -187500.02, -187500.02, -187500.02, -187500.02, 0.000, 0.000, 0.000, 02:36:36.817
163, 29421.13, 8468.05, -187500.02, -187500.02, -187500.02, -187500.02, -187500.02, -187500.02, 0.000, 0.000, 0.000, 02:36:36.817
164, 29384.68, 8418.40, -187500.02, -187500.02, -187500.02, -187500.02, -187500.02, -187500.02, 0.000, 0.000, 0.000, 02:36:36.817
165, 29403.45, 8467.65, -187500.02, -187500.02, -187500.02, -187500.02, -187500.02, -187500.02, 0.206, 0.992, -0.086, 02:36:36.818
166, 29428.84, 8488.86, -187500.02, -187500.02, -187500.02, -187500.02, -187500.02, -187500.02, 0.000, 0.000, 0.000, 02:36:36.818
167, 29418.00, 8472.94, -187500.02, -187500.02, -187500.02, -187500.02, -187500.02, -187500.02, 0.000, 0.000, 0.000, 02:36:36.818
168, 29375.02, 8443.13, -187500.02, -187500.02, -187500.02, -187500.02, -187500.02, -187500.02, 0.000, 0.000, 0.000, 02:36:36.818
169, 29404.01, 8463.64, -187500.02, -187500.02, -187500.02, -187500.02, -187500.02, -187500.02, 0.000, 0.000, 0.000, 02:36:36.818
170, 29440.11, 8487.76, -187500.02, -187500.02, -187500.02, -187500.02, -187500.02, -187500.02, 0.000, 0.000, 0.000, 02:36:36.818
171, 29426.54, 8474.95, -187500.02, -187500.02, -187500.02, -187500.02, -187500.02, -187500.02, 0.000, 0.000, 0.000, 02:36:36.818
172, 29389.28, 8426.12, -187500.02, -187500.02, -187500.02, -187500.02, -187500.02, -187500.02, 0.000, 0.000, 0.000, 02:36:36.818
173, 29400.28, 8437.72, -187500.02, -187500.02, -187500.02, -187500.02, -187500.02, -187500.02, 0.000, 0.000, 0.000, 02:36:36.818
174, 29438.54, 8480.45, -187500.02, -187500.02, -187500.02, -187500.02, -187500.02, -187500.02, 0.000, 0.000, 0.000, 02:36:36.818
175, 29428.28, 8474.31, -187500.02, -187500.02, -187500.02, -187500.02, -187500.02, -187500.02, 0.218, 0.988, -0.086, 02:36:36.819
176, 29421.51, 8444.33, -187500.02, -187500.02, -187500.02, -187500.02, -187500.02, -187500.02, 0.000, 0.000, 0.000, 02:36:36.819
177, 29396.86, 8432.82, -187500.02, -187500.02, -187500.02, -187500.02, -187500.02, -187500.02, 0.000, 0.000, 0.000, 02:36:36.819
178, 29418.56, 8469.70, -187500.02, -187500.02, -187500.02, -187500.02, -187500.02, -187500.02, 0.000, 0.000, 0.000, 02:36:36.819
179, 29427.54, 8480.07, -187500.02, -187500.02, -187500.02, -187500.02, -187500.02, -187500.02, 0.000, 0.000, 0.000, 02:36:36.819
180, 29402.13, 8457.09, -187500.02, -187500.02, -187500.02, -187500.02, -187500.02, -187500.02, 0.000, 0.000, 0.000, 02:36:36.819
181, 29386.98, 8433.11, -187500.02, -187500.02, -187500.02, -187500.02, -187500.02, -187500.02, 0.000, 0.000, 0.000, 02:36:36.819
182, 29421.85, 8492.75, -187500.02, -187500.02, -187500.02, -187500.02, -187500.02, -187500.02, 0.000, 0.000, 0.000, 02:36:36.819
183, 29416.21, 8482.58, -187500.02, -187500.02, -187500.02, -187500.02, -187500.02, -187500.02, 0.000, 0.000, 0.000, 02:36:36.820
184, 29404.93, 8461.45, -187500.02, -187500.02, -187500.02, -187500.02, -187500.02, -187500.02, 0.208, 0.988, -0.086, 02:36:36.820
185, 29386.69, 8445.29, -187500.02, -187500.02, -187500.02, -187500.02, -187500.02, -187500.02, 0.000, 0.000, 0.000, 02:36:36.820
186, 29418.16, 8459.71, -187500.02, -187500.02, -187500.02, -187500.02, -187500.02, -187500.02, 0.000, 0.000, 0.000, 02:36:36.820
187, 29438.39, 8471.38, -187500.02, -187500.02, -187500.02, -187500.02, -187500.02, -187500.02, 0.000, 0.000, 0.000, 02:36:36.820
188, 29410.63, 8439.57, -187500.02, -187500.02, -187500.02, -187500.02, -187500.02, -187500.02, 0.000, 0.000, 0.000, 02:36:36.820
189, 29399.56, 8431.48, -187500.02, -187500.02, -187500.02, -187500.02, -187500.02, -187500.02, 0.000, 0.000, 0.000, 02:36:36.820
190, 29424.42, 8451.44, -187500.02, -187500.02, -187500.02, -187500.02, -187500.02, -187500.02, 0.000, 0.000, 0.000, 02:36:36.820
191, 29435.97, 8462.95, -187500.02, -187500.02, -187500.02, -187500.02, -187500.02, -187500.02, 0.000, 0.000, 0.000, 02:36:36.820
192, 29419.21, 8465.08, -187500.02, -187500.02, -187500.02, -187500.02, -187500.02, -187500.02, 0.000, 0.000, 0.000, 02:36:36.820
193, 29387.80, 8436.80, -187500.02, -187500.02, -187500.02, -187500.02, -187500.02, -187500.02, 0.000, 0.000, 0.000, 02:36:36.821
194, 29403.03, 8440.98, -187500.02, -187500.02, -187500.02, -187500.02, -187500.02, -187500.02, 0.204, 0.992, -0.084, 02:36:36.821
195, 29432.84, 8488.92, -187500.02, -187500.02, -187500.02, -187500.02, -187500.02, -187500.02, 0.000, 0.000, 0.000, 02:36:36.821
196, 29424.71, 8478.55, -187500.02, -187500.02, -187500.02, -187500.02, -187500.02, -187500.02, 0.000, 0.000, 0.000, 02:36:36.821
197, 29394.69, 8444.67, -187500.02, -187500.02, -187500.02, -187500.02, -187500.02, -187500.02, 0.000, 0.000, 0.000, 02:36:36.821
198, 29391.65, 8433.45, -187500.02, -187500.02, -187500.02, -187500.02, -187500.02, -187500.02, 0.000, 0.000, 0.000, 02:36:36.821
199, 29430.61, 8474.48, -187500.02, -187500.02, -187500.02, -187500.02, -187500.02, -187500.02, 0.000, 0.000, 0.000, 02:36:36.821
200, 29421.35, 8464.47, -187500.02, -187500.02, -187500.02, -187500.02, -187500.02, -187500.02, 0.000, 0.000, 0.000, 02:36:36.821
201, 29406.47, 8465.37, -187500.02, -187500.02, -187500.02, -187500.02, -187500.02, -187500.02, 0.000, 0.000, 0.000, 02:36:36.821
202, 29394.40, 8445.58, -187500.02, -187500.02, -187500.02, -187500.02, -187500.02, -187500.02, 0.000, 0.000, 0.000, 02:36:36.822
203, 29437.31, 8471.15, -187500.02, -187500.02, -187500.02, -187500.02, -187500.02, -187500.02, 0.000, 0.000, 0.000, 02:36:36.822
204, 29434.54, 8463.11, -187500.02, -187500.02, -187500.02, -187500.02, -187500.02, -187500.02, 0.204, 0.990, -0.088, 02:36:36.822
205, 29410.58, 8440.78, -187500.02, -187500.02, -187500.02, -187500.02, -187500.02, -187500.02, 0.000, 0.000, 0.000, 02:36:36.822
206, 29399.72, 8428.44, -187500.02, -187500.02, -187500.02, -187500.02, -187500.02, -187500.02, 0.000, 0.000, 0.000, 02:36:36.822
207, 29418.78, 8450.95, -187500.02, -187500.02, -187500.02, -187500.02, -187500.02, -187500.02, 0.000, 0.000, 0.000, 02:36:36.822
208, 29404.79, 8430.85, -187500.02, -187500.02, -187500.02, -187500.02, -187500.02, -187500.02, 0.000, 0.000, 0.000, 02:36:36.822
209, 29406.38, 8439.86, -187500.02, -187500.02, -187500.02, -187500.02, -187500.02, -187500.02, 0.000, 0.000, 0.000, 02:36:36.822
210, 29383.63, 8421.73, -187500.02, -187500.02, -187500.02, -187500.02, -187500.02, -187500.02, 0.000, 0.000, 0.000, 02:36:37.288
211, 29399.36, 8429.76, -187500.02, -187500.02, -187500.02, -187500.02, -187500.02, -187500.02, 0.000, 0.000, 0.000, 02:36:37.288
212, 29413.17, 8452.36, -187500.02, -187500.02, -187500.02, -187500.02, -187500.02, -187500.02, 0.000, 0.000, 0.000, 02:36:37.288
213, 29404.14, 8447.71, -187500.02, -187500.02, -187500.02, -187500.02, -187500.02, -187500.02, 0.000, 0.000, 0.000, 02:36:37.288
214, 29387.63, 8439.04, -187500.02, -187500.02, -187500.02, -187500.02, -187500.02, -187500.02, 0.202, 0.996, -0.082, 02:36:37.289
215, 29406.87, 8450.14, -187500.02, -187500.02, -187500.02, -187500.02, -187500.02, -187500.02, 0.000, 0.000, 0.000, 02:36:37.289
216, 29419.16, 8465.70, -187500.02, -187500.02, -187500.02, -187500.02, -187500.02, -187500.02, 0.000, 0.000, 0.000, 02:36:37.289
217, 29415.99, 8466.50, -187500.02, -187500.02, -187500.02, -187500.02, -187500.02, -187500.02, 0.000, 0.000, 0.000, 02:36:37.289
218, 29384.63, 8430.72, -187500.02, -187500.02, -187500.02, -187500.02, -187500.02, -187500.02, 0.000, 0.000, 0.000, 02:36:37.289
219, 29402.85, 8434.52, -187500.02, -187500.02, -187500.02, -187500.02, -187500.02, -187500.02, 0.000, 0.000, 0.000, 02:36:37.289
220, 29429.40, 8449.23, -187500.02, -187500.02, -187500.02, -187500.02, -187500.02, -187500.02, 0.000, 0.000, 0.000, 02:36:37.289
221, 29417.42, 8448.83, -187500.02, -187500.02, -187500.02, -187500.02, -187500.02, -187500.02, 0.000, 0.000, 0.000, 02:36:37.289
222, 29399.79, 8412.66, -187500.02, -187500.02, -187500.02, -187500.02, -187500.02, -187500.02, 0.000, 0.000, 0.000, 02:36:37.290
223, 29401.82, 8406.11, -187500.02, -187500.02, -187500.02, -187500.02, -187500.02, -187500.02, 0.000, 0.000, 0.000, 02:36:37.290
224, 29437.85, 8484.86, -187500.02, -187500.02, -187500.02, -187500.02, -187500.02, -187500.02, 0.204, 0.994, -0.082, 02:36:37.290
225, 29441.16, 8490.13, -187500.02, -187500.02, -187500.02, -187500.02, -187500.02, -187500.02, 0.000, 0.000, 0.000, 02:36:37.290
226, 29424.24, 8455.28, -187500.02, -187500.02, -187500.02, -187500.02, -187500.02, -187500.02, 0.000, 0.000, 0.000, 02:36:37.290
227, 29401.24, 8431.88, -187500.02, -187500.02, -187500.02, -187500.02, -187500.02, -187500.02, 0.000, 0.000, 0.000, 02:36:37.290
228, 29433.02, 8447.71, -187500.02, -187500.02, -187500.02, -187500.02, -187500.02, -187500.02, 0.000, 0.000, 0.000, 02:36:37.290
229, 29429.60, 8435.39, -187500.02, -187500.02, -187500.02, -187500.02, -187500.02, -187500.02, 0.000, 0.000, 0.000, 02:36:37.291
230, 29415.43, 8449.34, -187500.02, -187500.02, -187500.02, -187500.02, -187500.02, -187500.02, 0.000, 0.000, 0.000, 02:36:37.291
231, 29406.38, 8435.50, -187500.02, -187500.02, -187500.02, -187500.02, -187500.02, -187500.02, 0.000, 0.000, 0.000, 02:36:37.291
232, 29430.79, 8439.84, -187500.02, -187500.02, -187500.02, -187500.02, -187500.02, -187500.02, 0.000, 0.000, 0.000, 02:36:37.291
233, 29424.13, 8450.61, -187500.02, -187500.02, -187500.02, -187500.02, -187500.02, -187500.02, 0.000, 0.000, 0.000, 02:36:37.291
234, 29404.79, 8427.26, -187500.02, -187500.02, -187500.02, -187500.02, -187500.02, -187500.02, 0.202, 0.996, -0.080, 02:36:37.291
235, 29396.25, 8416.48, -187500.02, -187500.02, -187500.02, -187500.02, -187500.02, -187500.02, 0.000, 0.000, 0.000, 02:36:37.291
236, 29406.60, 8432.73, -187500.02, -187500.02, -187500.02, -187500.02, -187500.02, -187500.02, 0.000, 0.000, 0.000, 02:36:37.291
237, 29420.82, 8447.60, -187500.02, -187500.02, -187500.02, -187500.02, -187500.02, -187500.02, 0.000, 0.000, 0.000, 02:36:37.292
238, 29417.31, 8425.51, -187500.02, -187500.02, -187500.02, -187500.02, -187500.02, -187500.02, 0.000, 0.000, 0.000, 02:36:37.292
239, 29398.47, 8425.78, -187500.02, -187500.02, -187500.02, -187500.02, -187500.02, -187500.02, 0.000, 0.000, 0.000, 02:36:37.292
240, 29422.20, 8441.16, -187500.02, -187500.02, -187500.02, -187500.02, -187500.02, -187500.02, 0.000, 0.000, 0.000, 02:36:37.292
241, 29456.04, 8477.90, -187500.02, -187500.02, -187500.02, -187500.02, -187500.02, -187500.02, 0.000, 0.000, 0.000, 02:36:37.292
242, 29442.70, 8459.82, -187500.02, -187500.02, -187500.02, -187500.02, -187500.02, -187500.02, 0.000, 0.000, 0.000, 02:36:37.292
243, 29404.66, 8409.96, -187500.02, -187500.02, -187500.02, -187500.02, -187500.02, -187500.02, 0.200, 0.988, -0.086, 02:36:37.292
244, 29405.95, 8410.36, -187500.02, -187500.02, -187500.02, -187500.02, -187500.02, -187500.02, 0.000, 0.000, 0.000, 02:36:37.292
245, 29429.49, 8431.59, -187500.02, -187500.02, -187500.02, -187500.02, -187500.02, -187500.02, 0.000, 0.000, 0.000, 02:36:37.293
246, 29424.15, 8408.70, -187500.02, -187500.02, -187500.02, -187500.02, -187500.02, -187500.02, 0.000, 0.000, 0.000, 02:36:37.293
247, 29403.90, 8409.24, -187500.02, -187500.02, -187500.02, -187500.02, -187500.02, -187500.02, 0.000, 0.000, 0.000, 02:36:37.293
248, 29404.10, 8434.30, -187500.02, -187500.02, -187500.02, -187500.02, -187500.02, -187500.02, 0.000, 0.000, 0.000, 02:36:37.293
249, 29442.95, 8453.63, -187500.02, -187500.02, -187500.02, -187500.02, -187500.02, -187500.02, 0.000, 0.000, 0.000, 02:36:37.293
250, 29432.80, 8452.56, -187500.02, -187500.02, -187500.02, -187500.02, -187500.02, -187500.02, 0.000, 0.000, 0.000, 02:36:37.293
251, 29412.30, 8441.02, -187500.02, -187500.02, -187500.02, -187500.02, -187500.02, -187500.02, 0.000, 0.000, 0.000, 02:36:37.293
252, 29421.96, 8432.64, -187500.02, -187500.02, -187500.02, -187500.02, -187500.02, -187500.02, 0.000, 0.000, 0.000, 02:36:37.294
253, 29455.64, 8464.47, -187500.02, -187500.02, -187500.02, -187500.02, -187500.02, -187500.02, 0.210, 0.996, -0.084, 02:36:37.294
254, 29439.93, 8473.75, -187500.02, -187500.02, -187500.02, -187500.02, -187500.02, -187500.02, 0.000, 0.000, 0.000, 02:36:37.294
255, 29417.85, 8476.18, -187500.02, -187500.02, -187500.02, -187500.02, -187500.02, -187500.02, 0.000, 0.000, 0.000, 02:36:37.294
0, 29397.93, 8449.76, -187500.02, -187500.02, -187500.02, -187500.02, -187500.02, -187500.02, 0.000, 0.000, 0.000, 02:36:37.294
1, 29443.08, 8476.09, -187500.02, -187500.02, -187500.02, -187500.02, -187500.02, -187500.02, 0.000, 0.000, 0.000, 02:36:37.294
2, 29457.03, 8495.92, -187500.02, -187500.02, -187500.02, -187500.02, -187500.02, -187500.02, 0.000, 0.000, 0.000, 02:36:37.294
3, 29428.60, 8482.69, -187500.02, -187500.02, -187500.02, -187500.02, -187500.02, -187500.02, 0.000, 0.000, 0.000, 02:36:37.294
4, 29418.36, 8488.37, -187500.02, -187500.02, -187500.02, -187500.02, -187500.02, -187500.02, 0.000, 0.000, 0.000, 02:36:37.294
5, 29444.69, 8490.00, -187500.02, -187500.02, -187500.02, -187500.02, -187500.02, -187500.02, 0.000, 0.000, 0.000, 02:36:37.294
6, 29463.60, 8494.22, -187500.02, -187500.02, -187500.02, -187500.02, -187500.02, -187500.02, 0.000, 0.000, 0.000, 02:36:37.295
7, 29448.91, 8500.55, -187500.02, -187500.02, -187500.02, -187500.02, -187500.02, -187500.02, 0.210, 0.998, -0.082, 02:36:37.295
8, 29426.09, 8482.64, -187500.02, -187500.02, -187500.02, -187500.02, -187500.02, -187500.02, 0.000, 0.000, 0.000, 02:36:37.295
9, 29444.02, 8496.03, -187500.02, -187500.02, -187500.02, -187500.02, -187500.02, -187500.02, 0.000, 0.000, 0.000, 02:36:37.295
10, 29454.12, 8512.64, -187500.02, -187500.02, -187500.02, -187500.02, -187500.02, -187500.02, 0.000, 0.000, 0.000, 02:36:37.295
11, 29446.14, 8489.37, -187500.02, -187500.02, -187500.02, -187500.02, -187500.02, -187500.02, 0.000, 0.000, 0.000, 02:36:37.295
12, 29417.24, 8465.41, -187500.02, -187500.02, -187500.02, -187500.02, -187500.02, -187500.02, 0.000, 0.000, 0.000, 02:36:37.295
13, 29429.83, 8490.82, -187500.02, -187500.02, -187500.02, -187500.02, -187500.02, -187500.02, 0.000, 0.000, 0.000, 02:36:37.295
14, 29458.99, 8538.66, -187500.02, -187500.02, -187500.02, -187500.02, -187500.02, -187500.02, 0.000, 0.000, 0.000, 02:36:37.295
15, 29456.13, 8528.06, -187500.02, -187500.02, -187500.02, -187500.02, -187500.02, -187500.02, 0.000, 0.000, 0.000, 02:36:37.295
16, 29426.47, 8497.80, -187500.02, -187500.02, -187500.02, -187500.02, -187500.02, -187500.02, 0.000, 0.000, 0.000, 02:36:37.296
17, 29425.47, 8496.10, -187500.02, -187500.02, -187500.02, -187500.02, -187500.02, -187500.02, 0.212, 0.996, -0.082, 02:36:37.296
18, 29459.49, 8521.07, -187500.02, -187500.02, -187500.02, -187500.02, -187500.02, -187500.02, 0.000, 0.000, 0.000, 02:36:37.296
19, 29459.58, 8518.54, -187500.02, -187500.02, -187500.02, -187500.02, -187500.02, -187500.02, 0.000, 0.000, 0.000, 02:36:37.296
20, 29432.91, 8484.45, -187500.02, -187500.02, -187500.02, -187500.02, -187500.02, -187500.02, 0.000, 0.000, 0.000, 02:36:37.296
21, 29424.28, 8479.33, -187500.02, -187500.02, -187500.02, -187500.02, -187500.02, -187500.02, 0.000, 0.000, 0.000, 02:36:37.296
22, 29453.21, 8533.54, -187500.02, -187500.02, -187500.02, -187500.02, -187500.02, -187500.02, 0.000, 0.000, 0.000, 02:36:37.296
23, 29455.69, 8541.47, -187500.02, -187500.02, -187500.02, -187500.02, -187500.02, -187500.02, 0.000, 0.000, 0.000, 02:36:37.296
24, 29436.80, 8510.92, -187500.02, -187500.02, -187500.02, -187500.02, -187500.02, -187500.02, 0.000, 0.000, 0.000, 02:36:37.296
25, 29423.77, 8497.08, -187500.02, -187500.02, -187500.02, -187500.02, -187500.02, -187500.02, 0.000, 0.000, 0.000, 02:36:37.296
26, 29447.08, 8511.37, -187500.02, -187500.02, -187500.02, -187500.02, -187500.02, -187500.02, 0.000, 0.000, 0.000, 02:36:37.297
27, 29464.47, 8498.31, -187500.02, -187500.02, -187500.02, -187500.02, -187500.02, -187500.02, 0.202, 0.990, -0.084, 02:36:37.297
28, 29443.28, 8516.06, -187500.02, -187500.02, -187500.02, -187500.02, -187500.02, -187500.02, 0.000, 0.000, 0.000, 02:36:37.297
29, 29424.30, 8519.68, -187500.02, -187500.02, -187500.02, -187500.02, -187500.02, -187500.02, 0.000, 0.000, 0.000, 02:36:37.297
30, 29451.42, 8524.37, -187500.02, -187500.02, -187500.02, -187500.02, -187500.02, -187500.02, 0.000, 0.000, 0.000, 02:36:37.297
31, 29473.77, 8538.50, -187500.02, -187500.02, -187500.02, -187500.02, -187500.02, -187500.02, 0.000, 0.000, 0.000, 02:36:37.297
32, 29458.62, 8534.79, -187500.02, -187500.02, -187500.02, -187500.02, -187500.02, -187500.02, 0.000, 0.000, 0.000, 02:36:37.297
33, 29399.18, 8485.08, -187500.02, -187500.02, -187500.02, -187500.02, -187500.02, -187500.02, 0.000, 0.000, 0.000, 02:36:37.297
34, 29425.58, 8497.22, -187500.02, -187500.02, -187500.02, -187500.02, -187500.02, -187500.02, 0.000, 0.000, 0.000, 02:36:37.297
35, 29465.30, 8537.27, -187500.02, -187500.02, -187500.02, -187500.02, -187500.02, -187500.02, 0.000, 0.000, 0.000, 02:36:37.298
36, 29444.49, 8526.45, -187500.02, -187500.02, -187500.02, -187500.02, -187500.02, -187500.02, 0.000, 0.000, 0.000, 02:36:37.298
37, 29413.69, 8491.94, -187500.02, -187500.02, -187500.02, -187500.02, -187500.02, -187500.02, 0.202, 0.990, -0.090, 02:36:37.298
38, 29416.12, 8494.47, -187500.02, -187500.02, -187500.02, -187500.02, -187500.02, -187500.02, 0.000, 0.000, 0.000, 02:36:37.298
39, 29453.61, 8520.73, -187500.02, -187500.02, -187500.02, -187500.02, -187500.02, -187500.02, 0.000, 0.000, 0.000, 02:36:37.298
40, 29463.44, 8537.05, -187500.02, -187500.02, -187500.02, -187500.02, -187500.02, -187500.02, 0.000, 0.000, 0.000, 02:36:37.298
41, 29415.41, 8507.27, -187500.02, -187500.02, -187500.02, -187500.02, -187500.02, -187500.02, 0.000, 0.000, 0.000, 02:36:37.298
42, 29409.06, 8468.43, -187500.02, -187500.02, -187500.02, -187500.02, -187500.02, -187500.02, 0.000, 0.000, 0.000, 02:36:37.298
43, 29433.65, 8533.29, -187500.02, -187500.02, -187500.02, -187500.02, -187500.02, -187500.02, 0.000, 0.000, 0.000, 02:36:37.298
44, 29441.58, 8547.11, -187500.02, -187500.02, -187500.02, -187500.02, -187500.02, -187500.02, 0.000, 0.000, 0.000, 02:36:37.298
45, 29423.59, 8512.42, -187500.02, -187500.02, -187500.02, -187500.02, -187500.02, -187500.02, 0.000, 0.000, 0.000, 02:36:37.299
46, 29412.97, 8490.96, -187500.02, -187500.02, -187500.02, -187500.02, -187500.02, -187500.02, 0.202, 0.996, -0.086, 02:36:37.299
47, 29440.15, 8511.16, -187500.02, -187500.02, -187500.02, -187500.02, -187500.02, -187500.02, 0.000, 0.000, 0.000, 02:36:37.299
48, 29459.62, 8528.22, -187500.02, -187500.02, -187500.02, -187500.02, -187500.02, -187500.02, 0.000, 0.000, 0.000, 02:36:37.299
49, 29443.91, 8518.45, -187500.02, -187500.02, -187500.02, -187500.02, -187500.02, -187500.02, 0.000, 0.000, 0.000, 02:36:37.299
50, 29424.42, 8515.30, -187500.02, -187500.02, -187500.02, -187500.02, -187500.02, -187500.02, 0.000, 0.000, 0.000, 02:36:37.299
51, 29449.94, 8530.68, -187500.02, -187500.02, -187500.02, -187500.02, -187500.02, -187500.02, 0.000, 0.000, 0.000, 02:36:37.299
52, 29456.89, 8532.53, -187500.02, -187500.02, -187500.02, -187500.02, -187500.02, -187500.02, 0.000, 0.000, 0.000, 02:36:37.300
53, 29437.40, 8506.94, -187500.02, -187500.02, -187500.02, -187500.02, -187500.02, -187500.02, 0.000, 0.000, 0.000, 02:36:37.300
54, 29410.20, 8471.15, -187500.02, -187500.02, -187500.02, -187500.02, -187500.02, -187500.02, 0.000, 0.000, 0.000, 02:36:37.300
55, 29413.98, 8484.43, -187500.02, -187500.02, -187500.02, -187500.02, -187500.02, -187500.02, 0.000, 0.000, 0.000, 02:36:37.300
56, 29433.22, 8495.74, -187500.02, -187500.02, -187500.02, -187500.02, -187500.02, -187500.02, 0.202, 0.998, -0.088, 02:36:37.300
57, 29427.57, 8481.97, -187500.02, -187500.02, -187500.02, -187500.02, -187500.02, -187500.02, 0.000, 0.000, 0.000, 02:36:37.300
58, 29389.21, 8450.41, -187500.02, -187500.02, -187500.02, -187500.02, -187500.02, -187500.02, 0.000, 0.000, 0.000, 02:36:37.300
59, 29400.46, 8492.43, -187500.02, -187500.02, -187500.02, -187500.02, -187500.02, -187500.02, 0.000, 0.000, 0.000, 02:36:37.301
60, 29432.73, 8524.60, -187500.02, -187500.02, -187500.02, -187500.02, -187500.02, -187500.02, 0.000, 0.000, 0.000, 02:36:37.301
61, 29433.94, 8526.32, -187500.02, -187500.02, -187500.02, -187500.02, -187500.02, -187500.02, 0.000, 0.000, 0.000, 02:36:37.301
62, 29416.59, 8498.00, -187500.02, -187500.02, -187500.02, -187500.02, -187500.02, -187500.02, 0.000, 0.000, 0.000, 02:36:37.301
63, 29413.98, 8479.85, -187500.02, -187500.02, -187500.02, -187500.02, -187500.02, -187500.02, 0.000, 0.000, 0.000, 02:36:37.301
64, 29437.13, 8508.73, -187500.02, -187500.02, -187500.02, -187500.02, -187500.02, -187500.02, 0.000, 0.000, 0.000, 02:36:37.301
65, 29426.32, 8496.14, -187500.02, -187500.02, -187500.02, -187500.02, -187500.02, -187500.02, 0.000, 0.000, 0.000, 02:36:37.301
66, 29400.68, 8490.85, -187500.02, -187500.02, -187500.02, -187500.02, -187500.02, -187500.02, 0.206, 0.998, -0.086, 02:36:37.301
67, 29403.85, 8478.15, -187500.02, -187500.02, -187500.02, -187500.02, -187500.02, -187500.02, 0.000, 0.000, 0.000, 02:36:37.302
68, 29427.10, 8498.42, -187500.02, -187500.02, -187500.02, -187500.02, -187500.02, -187500.02, 0.000, 0.000, 0.000, 02:36:37.302
69, 29425.53, 8514.70, -187500.02, -187500.02, -187500.02, -187500.02, -187500.02, -187500.02, 0.000, 0.000, 0.000, 02:36:37.302
70, 29418.87, 8498.33, -187500.02, -187500.02, -187500.02, -187500.02, -187500.02, -187500.02, 0.000, 0.000, 0.000, 02:36:37.302
71, 29398.82, 8473.79, -187500.02, -187500.02, -187500.02, -187500.02, -187500.02, -187500.02, 0.000, 0.000, 0.000, 02:36:37.302
72, 29436.87, 8497.42, -187500.02, -187500.02, -187500.02, -187500.02, -187500.02, -187500.02, 0.000, 0.000, 0.000, 02:36:37.302
73, 29435.84, 8505.73, -187500.02, -187500.02, -187500.02, -187500.02, -187500.02, -187500.02, 0.000, 0.000, 0.000, 02:36:37.302
74, 29415.81, 8495.92, -187500.02, -187500.02, -187500.02, -187500.02, -187500.02, -187500.02, 0.000, 0.000, 0.000, 02:36:37.768
75, 29388.99, 8450.48, -187500.02, -187500.02, -187500.02, -187500.02, -187500.02, -187500.02, 0.000, 0.000, 0.000, 02:36:37.769
76, 29416.79, 8477.95, -187500.02, -187500.02, -187500.02, -187500.02, -187500.02, -187500.02, 0.208, 0.996, -0.082, 02:36:37.769
77, 29432.53, 8511.50, -187500.02, -187500.02, -187500.02, -187500.02, -187500.02, -187500.02, 0.000, 0.000, 0.000, 02:36:37.769
78, 29409.26, 8491.85, -187500.02, -187500.02, -187500.02, -187500.02, -187500.02, -187500.02, 0.000, 0.000, 0.000, 02:36:37.769
79, 29394.40, 8480.01, -187500.02, -187500.02, -187500.02, -187500.02, -187500.02, -187500.02, 0.000, 0.000, 0.000, 02:36:37.769
80, 29412.46, 8482.42, -187500.02, -187500.02, -187500.02, -187500.02, -187500.02, -187500.02, 0.000, 0.000, 0.000, 02:36:37.770
81, 29439.06, 8515.14, -187500.02, -187500.02, -187500.02, -187500.02, -187500.02, -187500.02, 0.000, 0.000, 0.000, 02:36:37.770
82, 29435.82, 8515.97, -187500.02, -187500.02, -187500.02, -187500.02, -187500.02, -187500.02, 0.000, 0.000, 0.000, 02:36:37.770
83, 29389.77, 8472.47, -187500.02, -187500.02, -187500.02, -187500.02, -187500.02, -187500.02, 0.000, 0.000, 0.000, 02:36:37.770
84, 29391.00, 8465.01, -187500.02, -187500.02, -187500.02, -187500.02, -187500.02, -187500.02, 0.000, 0.000, 0.000, 02:36:37.770
85, 29433.98, 8489.88, -187500.02, -187500.02, -187500.02, -187500.02, -187500.02, -187500.02, 0.000, 0.000, 0.000, 02:36:37.770
86, 29430.27, 8493.95, -187500.02, -187500.02, -187500.02, -187500.02, -187500.02, -187500.02, 0.206, 0.996, -0.084, 02:36:37.770
87, 29399.76, 8478.55, -187500.02, -187500.02, -187500.02, -187500.02, -187500.02, -187500.02, 0.000, 0.000, 0.000, 02:36:37.770
88, 29391.02, 8460.54, -187500.02, -187500.02, -187500.02, -187500.02, -187500.02, -187500.02, 0.000, 0.000, 0.000, 02:36:37.770
89, 29422.83, 8500.95, -187500.02, -187500.02, -187500.02, -187500.02, -187500.02, -187500.02, 0.000, 0.000, 0.000, 02:36:37.771
90, 29422.65, 8480.30, -187500.02, -187500.02, -187500.02, -187500.02, -187500.02, -187500.02, 0.000, 0.000, 0.000, 02:36:37.771
91, 29409.57, 8478.13, -187500.02, -187500.02, -187500.02, -187500.02, -187500.02, -187500.02, 0.000, 0.000, 0.000, 02:36:37.771
92, 29406.76, 8482.67, -187500.02, -187500.02, -187500.02, -187500.02, -187500.02, -187500.02, 0.000, 0.000, 0.000, 02:36:37.771
93, 29430.83, 8502.13, -187500.02, -187500.02, -187500.02, -187500.02, -187500.02, -187500.02, 0.000, 0.000, 0.000, 02:36:37.771
94, 29437.65, 8475.80, -187500.02, -187500.02, -187500.02, -187500.02, -187500.02, -187500.02, 0.000, 0.000, 0.000, 02:36:37.771
95, 29414.94, 8466.15, -187500.02, -187500.02, -187500.02, -187500.02, -187500.02, -187500.02, 0.000, 0.000, 0.000, 02:36:37.771
96, 29397.37, 8472.23, -187500.02, -187500.02, -187500.02, -187500.02, -187500.02, -187500.02, 0.206, 0.990, -0.088, 02:36:37.771
97, 29437.38, 8508.64, -187500.02, -187500.02, -187500.02, -187500.02, -187500.02, -187500.02, 0.000, 0.000, 0.000, 02:36:37.772
98, 29437.63, 8519.64, -187500.02, -187500.02, -187500.02, -187500.02, -187500.02, -187500.02, 0.000, 0.000, 0.000, 02:36:37.772
99, 29414.29, 8492.05, -187500.02, -187500.02, -187500.02, -187500.02, -187500.02, -187500.02, 0.000, 0.000, 0.000, 02:36:37.772
100, 29381.88, 8452.65, -187500.02, -187500.02, -187500.02, -187500.02, -187500.02, -187500.02, 0.000, 0.000, 0.000, 02:36:37.772
101, 29401.28, 8461.23, -187500.02, -187500.02, -187500.02, -187500.02, -187500.02, -187500.02, 0.000, 0.000, 0.000, 02:36:37.772
102, 29430.21, 8509.38, -187500.02, -187500.02, -187500.02, -187500.02, -187500.02, -187500.02, 0.000, 0.000, 0.000, 02:36:37.772
103, 29428.98, 8505.13, -187500.02, -187500.02, -187500.02, -187500.02, -187500.02, -187500.02, 0.000, 0.000, 0.000, 02:36:37.772
104, 29406.80, 8458.37, -187500.02, -187500.02, -187500.02, -187500.02, -187500.02, -187500.02, 0.000, 0.000, 0.000, 02:36:37.772
105, 29424.26, 8460.43, -187500.02, -187500.02, -187500.02, -187500.02, -187500.02, -187500.02, 0.000, 0.000, 0.000, 02:36:37.772
106, 29443.01, 8507.77, -187500.02, -187500.02, -187500.02, -187500.02, -187500.02, -187500.02, 0.208, 0.990, -0.088, 02:36:37.773
107, 29437.87, 8499.54, -187500.02, -187500.02, -187500.02, -187500.02, -187500.02, -187500.02, 0.000, 0.000, 0.000, 02:36:37.773
108, 29409.33, 8466.55, -187500.02, -187500.02, -187500.02, -187500.02, -187500.02, -187500.02, 0.000, 0.000, 0.000, 02:36:37.773
109, 29402.02, 8463.64, -187500.02, -187500.02, -187500.02, -187500.02, -187500.02, -187500.02, 0.000, 0.000, 0.000, 02:36:37.773
110, 29429.63, 8487.87, -187500.02, -187500.02, -187500.02, -187500.02, -187500.02, -187500.02, 0.000, 0.000, 0.000, 02:36:37.773
111, 29422.72, 8473.61, -187500.02, -187500.02, -187500.02, -187500.02, -187500.02, -187500.02, 0.000, 0.000, 0.000, 02:36:37.773
112, 29408.86, 8476.85, -187500.02, -187500.02, -187500.02, -187500.02, -187500.02, -187500.02, 0.000, 0.000, 0.000, 02:36:37.773
113, 29418.27, 8472.85, -187500.02, -187500.02, -187500.02, -187500.02, -187500.02, -187500.02, 0.000, 0.000, 0.000, 02:36:37.774
114, 29450.68, 8496.39, -187500.02, -187500.02, -187500.02, -187500.02, -187500.02, -187500.02, 0.000, 0.000, 0.000, 02:36:37.774
115, 29444.87, 8496.05, -187500.02, -187500.02, -187500.02, -187500.02, -187500.02, -187500.02, 0.202, 0.992, -0.092, 02:36:37.774
116, 29407.05, 8472.00, -187500.02, -187500.02, -187500.02, -187500.02, -187500.02, -187500.02, 0.000, 0.000, 0.000, 02:36:37.774
117, 29395.25, 8471.83, -187500.02, -187500.02, -187500.02, -187500.02, -187500.02, -187500.02, 0.000, 0.000, 0.000, 02:36:37.774
118, 29437.60, 8501.84, -187500.02, -187500.02, -187500.02, -187500.02, -187500.02, -187500.02, 0.000, 0.000, 0.000, 02:36:37.774
119, 29442.07, 8496.14, -187500.02, -187500.02, -187500.02, -187500.02, -187500.02, -187500.02, 0.000, 0.000, 0.000, 02:36:37.774
120, 29419.92, 8468.05, -187500.02, -187500.02, -187500.02, -187500.02, -187500.02, -187500.02, 0.000, 0.000, 0.000, 02:36:37.774
121, 29390.46, 8436.96, -187500.02, -187500.02, -187500.02, -187500.02, -187500.02, -187500.02, 0.000, 0.000, 0.000, 02:36:37.774
122, 29429.85, 8478.69, -187500.02, -187500.02, -187500.02, -187500.02, -187500.02, -187500.02, 0.000, 0.000, 0.000, 02:36:37.774
123, 29450.75, 8490.67, -187500.02, -187500.02, -187500.02, -187500.02, -187500.02, -187500.02, 0.000, 0.000, 0.000, 02:36:37.775
124, 29417.78, 8474.35, -187500.02, -187500.02, -187500.02, -187500.02, -187500.02, -187500.02, 0.000, 0.000, 0.000, 02:36:37.775
125, 29394.31, 8467.13, -187500.02, -187500.02, -187500.02, -187500.02, -187500.02, -187500.02, 0.208, 0.994, -0.088, 02:36:37.775
126, 29423.37, 8478.49, -187500.02, -187500.02, -187500.02, -187500.02, -187500.02, -187500.02, 0.000, 0.000, 0.000, 02:36:37.775
127, 29438.28, 8498.31, -187500.02, -187500.02, -187500.02, -187500.02, -187500.02, -187500.02, 0.000, 0.000, 0.000, 02:36:37.775
128, 29428.11, 8463.00, -187500.02, -187500.02, -187500.02, -187500.02, -187500.02, -187500.02, 0.000, 0.000, 0.000, 02:36:37.775
129, 29401.13, 8466.30, -187500.02, -187500.02, -187500.02, -187500.02, -187500.02, -187500.02, 0.000, 0.000, 0.000, 02:36:37.775
130, 29408.93, 8472.21, -187500.02, -187500.02, -187500.02, -187500.02, -187500.02, -187500.02, 0.000, 0.000, 0.000, 02:36:37.775
131, 29427.21, 8490.94, -187500.02, -187500.02, -187500.02, -187500.02, -187500.02, -187500.02, 0.000, 0.000, 0.000, 02:36:37.775
132, 29412.14, 8481.66, -187500.02, -187500.02, -187500.02, -187500.02, -187500.02, -187500.02, 0.000, 0.000, 0.000, 02:36:37.776
133, 29388.45, 8447.33, -187500.02, -187500.02, -187500.02, -187500.02, -187500.02, -187500.02, 0.000, 0.000, 0.000, 02:36:37.776
134, 29410.74, 8433.49, -187500.02, -187500.02, -187500.02, -187500.02, -187500.02, -187500.02, 0.000, 0.000, 0.000, 02:36:37.776
135, 29435.71, 8471.09, -187500.02, -187500.02, -187500.02, -187500.02, -187500.02, -187500.02, 0.204, 0.994, -0.088, 02:36:37.776
136, 29418.47, 8461.90, -187500.02, -187500.02, -187500.02, -187500.02, -187500.02, -187500.02, 0.000, 0.000, 0.000, 02:36:37.776
137, 29396.88, 8453.88, -187500.02, -187500.02, -187500.02, -187500.02, -187500.02, -187500.02, 0.000, 0.000, 0.000, 02:36:37.776
138, 29401.89, 8452.02, -187500.02, -187500.02, -187500.02, -187500.02, -187500.02, -187500.02, 0.000, 0.000, 0.000, 02:36:37.776
139, 29437.20, 8502.92, -187500.02, -187500.02, -187500.02, -187500.02, -187500.02, -187500.02, 0.000, 0.000, 0.000, 02:36:37.776
140, 29421.33, 8473.66, -187500.02, -187500.02, -187500.02, -187500.02, -187500.02, -187500.02, 0.000, 0.000, 0.000, 02:36:37.776
141, 29407.90, 8457.41, -187500.02, -187500.02, -187500.02, -187500.02, -187500.02, -187500.02, 0.000, 0.000, 0.000, 02:36:37.777
142, 29403.52, 8446.79, -187500.02, -187500.02, -187500.02, -187500.02, -187500.02, -187500.02, 0.000, 0.000, 0.000, 02:36:37.777
143, 29440.89, 8461.57, -187500.02, -187500.02, -187500.02, -187500.02, -187500.02, -187500.02, 0.000, 0.000, 0.000, 02:36:37.777
144, 29447.10, 8502.00, -187500.02, -187500.02, -187500.02, -187500.02, -187500.02, -187500.02, 0.000, 0.000, 0.000, 02:36:37.777
145, 29424.71, 8488.54, -187500.02, -187500.02, -187500.02, -187500.02, -187500.02, -187500.02, 0.206, 0.992, -0.088, 02:36:37.777
146, 29409.80, 8464.11, -187500.02, -187500.02, -187500.02, -187500.02, -187500.02, -187500.02, 0.000, 0.000, 0.000, 02:36:37.777
147, 29434.74, 8476.92, -187500.02, -187500.02, -187500.02, -187500.02, -187500.02, -187500.02, 0.000, 0.000, 0.000, 02:36:37.777
148, 29439.55, 8479.67, -187500.02, -187500.02, -187500.02, -187500.02, -187500.02, -187500.02, 0.000, 0.000, 0.000, 02:36:37.777
149, 29418.83, 8457.68, -187500.02, -187500.02, -187500.02, -187500.02, -187500.02, -187500.02, 0.000, 0.000, 0.000, 02:36:37.778
150, 29396.59, 8424.42, -187500.02, -187500.02, -187500.02, -187500.02, -187500.02, -187500.02, 0.000, 0.000, 0.000, 02:36:37.778
151, 29414.18, 8452.80, -187500.02, -187500.02, -187500.02, -187500.02, -187500.02, -187500.02, 0.000, 0.000, 0.000, 02:36:37.778
152, 29421.49, 8480.21, -187500.02, -187500.02, -187500.02, -187500.02, -187500.02, -187500.02, 0.000, 0.000, 0.000, 02:36:37.778
153, 29419.46, 8451.33, -187500.02, -187500.02, -187500.02, -187500.02, -187500.02, -187500.02, 0.000, 0.000, 0.000, 02:36:37.778
154, 29397.68, 8456.42, -187500.02, -187500.02, -187500.02, -187500.02, -187500.02, -187500.02, 0.000, 0.000, 0.000, 02:36:37.778
155, 29415.43, 8477.03, -187500.02, -187500.02, -187500.02, -187500.02, -187500.02, -187500.02, 0.202, 0.988, -0.090, 02:36:37.778
