%OpenBCI Raw EEG Data
%
%Sample Rate = 250.0 Hz
%First Column = SampleIndex
%Last Column = Timestamp 
%Other Columns = EEG data in microvolts followed by Accel Data (in G) interleaved with Aux Data
0, 0.00, 0.00, 0.00, 0.00, 0.00, 0.00, 0.00, 0.00, 0.000, 0.000, 0.000, 02:34:52.553
1, 29952.68, 8499.52, -187500.02, -187500.02, -187500.02, -187500.02, -187500.02, -187500.02, 0.184, 1.004, -0.080, 02:34:53.031
2, 29927.02, 8470.26, -187500.02, -187500.02, -187500.02, -187500.02, -187500.02, -187500.02, 0.000, 0.000, 0.000, 02:34:53.031
3, 29925.30, 8456.92, -187500.02, -187500.02, -187500.02, -187500.02, -187500.02, -187500.02, 0.000, 0.000, 0.000, 02:34:53.031
4, 29957.68, 8493.55, -187500.02, -187500.02, -187500.02, -187500.02, -187500.02, -187500.02, 0.000, 0.000, 0.000, 02:34:53.031
5, 29954.40, 8506.43, -187500.02, -187500.02, -187500.02, -187500.02, -187500.02, -187500.02, 0.000, 0.000, 0.000, 02:34:53.032
6, 29934.75, 8476.52, -187500.02, -187500.02, -187500.02, -187500.02, -187500.02, -187500.02, 0.000, 0.000, 0.000, 02:34:53.032
7, 29935.80, 8471.85, -187500.02, -187500.02, -187500.02, -187500.02, -187500.02, -187500.02, 0.000, 0.000, 0.000, 02:34:53.032
8, 29962.89, 8483.56, -187500.02, -187500.02, -187500.02, -187500.02, -187500.02, -187500.02, 0.196, 1.000, -0.078, 02:34:53.032
9, 29956.75, 8488.16, -187500.02, -187500.02, -187500.02, -187500.02, -187500.02, -187500.02, 0.000, 0.000, 0.000, 02:34:53.032
10, 29932.20, 8474.75, -187500.02, -187500.02, -187500.02, -187500.02, -187500.02, -187500.02, 0.000, 0.000, 0.000, 02:34:53.032
11, 29915.48, 8449.50, -187500.02, -187500.02, -187500.02, -187500.02, -187500.02, -187500.02, 0.000, 0.000, 0.000, 02:34:53.032
12, 29953.93, 8479.31, -187500.02, -187500.02, -187500.02, -187500.02, -187500.02, -187500.02, 0.000, 0.000, 0.000, 02:34:53.032
13, 29956.63, 8500.12, -187500.02, -187500.02, -187500.02, -187500.02, -187500.02, -187500.02, 0.000, 0.000, 0.000, 02:34:53.032
14, 29947.43, 8490.73, -187500.02, -187500.02, -187500.02, -187500.02, -187500.02, -187500.02, 0.000, 0.000, 0.000, 02:34:53.032
15, 29928.83, 8464.74, -187500.02, -187500.02, -187500.02, -187500.02, -187500.02, -187500.02, 0.000, 0.000, 0.000, 02:34:53.033
16, 29955.74, 8497.64, -187500.02, -187500.02, -187500.02, -187500.02, -187500.02, -187500.02, 0.000, 0.000, 0.000, 02:34:53.033
17, 29955.65, 8502.18, -187500.02, -187500.02, -187500.02, -187500.02, -187500.02, -187500.02, 0.202, 0.998, -0.086, 02:34:53.033
18, 29939.80, 8482.22, -187500.02, -187500.02, -187500.02, -187500.02, -187500.02, -187500.02, 0.000, 0.000, 0.000, 02:34:53.033
19, 29926.15, 8476.43, -187500.02, -187500.02, -187500.02, -187500.02, -187500.02, -187500.02, 0.000, 0.000, 0.000, 02:34:53.033
20, 29949.77, 8495.83, -187500.02, -187500.02, -187500.02, -187500.02, -187500.02, -187500.02, 0.000, 0.000, 0.000, 02:34:53.033
21, 29977.00, 8516.44, -187500.02, -187500.02, -187500.02, -187500.02, -187500.02, -187500.02, 0.000, 0.000, 0.000, 02:34:53.033
22, 29961.48, 8497.33, -187500.02, -187500.02, -187500.02, -187500.02, -187500.02, -187500.02, 0.000, 0.000, 0.000, 02:34:53.033
23, 29925.36, 8457.36, -187500.02, -187500.02, -187500.02, -187500.02, -187500.02, -187500.02, 0.000, 0.000, 0.000, 02:34:53.033
24, 29933.10, 8470.17, -187500.02, -187500.02, -187500.02, -187500.02, -187500.02, -187500.02, 0.000, 0.000, 0.000, 02:34:53.034
25, 29964.79, 8494.24, -187500.02, -187500.02, -187500.02, -187500.02, -187500.02, -187500.02, 0.000, 0.000, 0.000, 02:34:53.034
26, 29953.93, 8472.70, -187500.02, -187500.02, -187500.02, -187500.02, -187500.02, -187500.02, 0.000, 0.000, 0.000, 02:34:53.034
27, 29932.05, 8466.86, -187500.02, -187500.02, -187500.02, -187500.02, -187500.02, -187500.02, 0.206, 0.996, -0.088, 02:34:53.034
28, 29932.54, 8458.53, -187500.02, -187500.02, -187500.02, -187500.02, -187500.02, -187500.02, 0.000, 0.000, 0.000, 02:34:53.034
29, 29965.35, 8484.23, -187500.02, -187500.02, -187500.02, -187500.02, -187500.02, -187500.02, 0.000, 0.000, 0.000, 02:34:53.034
30, 29965.69, 8497.64, -187500.02, -187500.02, -187500.02, -187500.02, -187500.02, -187500.02, 0.000, 0.000, 0.000, 02:34:53.034
31, 29945.03, 8482.22, -187500.02, -187500.02, -187500.02, -187500.02, -187500.02, -187500.02, 0.000, 0.000, 0.000, 02:34:53.034
32, 29923.04, 8450.43, -187500.02, -187500.02, -187500.02, -187500.02, -187500.02, -187500.02, 0.000, 0.000, 0.000, 02:34:53.034
33, 29959.00, 8484.30, -187500.02, -187500.02, -187500.02, -187500.02, -187500.02, -187500.02, 0.000, 0.000, 0.000, 02:34:53.034
34, 29971.07, 8499.12, -187500.02, -187500.02, -187500.02, -187500.02, -187500.02, -187500.02, 0.000, 0.000, 0.000, 02:34:53.035
35, 29950.31, 8481.44, -187500.02, -187500.02, -187500.02, -187500.02, -187500.02, -187500.02, 0.000, 0.000, 0.000, 02:34:53.035
36, 29928.61, 8458.97, -187500.02, -187500.02, -187500.02, -187500.02, -187500.02, -187500.02, 0.000, 0.000, 0.000, 02:34:53.035
37, 29959.47, 8485.97, -187500.02, -187500.02, -187500.02, -187500.02, -187500.02, -187500.02, 0.206, 0.990, -0.092, 02:34:53.035
38, 29971.88, 8497.31, -187500.02, -187500.02, -187500.02, -187500.02, -187500.02, -187500.02, 0.000, 0.000, 0.000, 02:34:53.035
39, 29958.27, 8481.84, -187500.02, -187500.02, -187500.02, -187500.02, -187500.02, -187500.02, 0.000, 0.000, 0.000, 02:34:53.035
40, 29932.94, 8460.43, -187500.02, -187500.02, -187500.02, -187500.02, -187500.02, -187500.02, 0.000, 0.000, 0.000, 02:34:53.035
41, 29961.60, 8480.63, -187500.02, -187500.02, -187500.02, -187500.02, -187500.02, -187500.02, 0.000, 0.000, 0.000, 02:34:53.035
42, 29965.33, 8484.01, -187500.02, -187500.02, -187500.02, -187500.02, -187500.02, -187500.02, 0.000, 0.000, 0.000, 02:34:53.036
43, 29956.34, 8474.06, -187500.02, -187500.02, -187500.02, -187500.02, -187500.02, -187500.02, 0.000, 0.000, 0.000, 02:34:53.036
44, 29935.00, 8459.93, -187500.02, -187500.02, -187500.02, -187500.02, -187500.02, -187500.02, 0.000, 0.000, 0.000, 02:34:53.036
45, 29945.14, 8468.70, -187500.02, -187500.02, -187500.02, -187500.02, -187500.02, -187500.02, 0.000, 0.000, 0.000, 02:34:53.036
46, 29974.04, 8497.33, -187500.02, -187500.02, -187500.02, -187500.02, -187500.02, -187500.02, 0.000, 0.000, 0.000, 02:34:53.036
47, 29981.85, 8491.29, -187500.02, -187500.02, -187500.02, -187500.02, -187500.02, -187500.02, 0.200, 0.992, -0.088, 02:34:53.036
48, 29956.72, 8468.16, -187500.02, -187500.02, -187500.02, -187500.02, -187500.02, -187500.02, 0.000, 0.000, 0.000, 02:34:53.036
49, 29969.87, 8474.35, -187500.02, -187500.02, -187500.02, -187500.02, -187500.02, -187500.02, 0.000, 0.000, 0.000, 02:34:53.036
50, 29980.82, 8480.88, -187500.02, -187500.02, -187500.02, -187500.02, -187500.02, -187500.02, 0.000, 0.000, 0.000, 02:34:53.036
51, 29974.27, 8497.31, -187500.02, -187500.02, -187500.02, -187500.02, -187500.02, -187500.02, 0.000, 0.000, 0.000, 02:34:53.036
52, 29943.60, 8476.38, -187500.02, -187500.02, -187500.02, -187500.02, -187500.02, -187500.02, 0.000, 0.000, 0.000, 02:34:53.036
53, 29934.71, 8467.09, -187500.02, -187500.02, -187500.02, -187500.02, -187500.02, -187500.02, 0.000, 0.000, 0.000, 02:34:53.037
54, 29971.30, 8500.68, -187500.02, -187500.02, -187500.02, -187500.02, -187500.02, -187500.02, 0.000, 0.000, 0.000, 02:34:53.037
55, 29982.81, 8503.92, -187500.02, -187500.02, -187500.02, -187500.02, -187500.02, -187500.02, 0.000, 0.000, 0.000, 02:34:53.037
56, 29959.34, 8488.14, -187500.02, -187500.02, -187500.02, -187500.02, -187500.02, -187500.02, 0.000, 0.000, 0.000, 02:34:53.037
57, 29926.06, 8483.56, -187500.02, -187500.02, -187500.02, -187500.02, -187500.02, -187500.02, 0.196, 0.992, -0.086, 02:34:53.037
58, 29958.69, 8526.30, -187500.02, -187500.02, -187500.02, -187500.02, -187500.02, -187500.02, 0.000, 0.000, 0.000, 02:34:53.037
59, 29969.87, 8520.89, -187500.02, -187500.02, -187500.02, -187500.02, -187500.02, -187500.02, 0.000, 0.000, 0.000, 02:34:53.037
60, 29955.16, 8494.53, -187500.02, -187500.02, -187500.02, -187500.02, -187500.02, -187500.02, 0.000, 0.000, 0.000, 02:34:53.037
61, 29940.05, 8492.46, -187500.02, -187500.02, -187500.02, -187500.02, -187500.02, -187500.02, 0.000, 0.000, 0.000, 02:34:53.037
62, 29968.01, 8530.05, -187500.02, -187500.02, -187500.02, -187500.02, -187500.02, -187500.02, 0.000, 0.000, 0.000, 02:34:53.037
63, 29985.71, 8550.95, -187500.02, -187500.02, -187500.02, -187500.02, -187500.02, -187500.02, 0.000, 0.000, 0.000, 02:34:53.038
64, 29963.34, 8529.56, -187500.02, -187500.02, -187500.02, -187500.02, -187500.02, -187500.02, 0.000, 0.000, 0.000, 02:34:53.045
65, 29931.38, 8508.97, -187500.02, -187500.02, -187500.02, -187500.02, -187500.02, -187500.02, 0.000, 0.000, 0.000, 02:34:53.045
66, 29967.09, 8541.58, -187500.02, -187500.02, -187500.02, -187500.02, -187500.02, -187500.02, 0.000, 0.000, 0.000, 02:34:53.045
67, 29984.15, 8553.25, -187500.02, -187500.02, -187500.02, -187500.02, -187500.02, -187500.02, 0.194, 0.990, -0.088, 02:34:53.045
68, 29964.79, 8537.09, -187500.02, -187500.02, -187500.02, -187500.02, -187500.02, -187500.02, 0.000, 0.000, 0.000, 02:34:53.046
69, 29942.60, 8520.44, -187500.02, -187500.02, -187500.02, -187500.02, -187500.02, -187500.02, 0.000, 0.000, 0.000, 02:34:53.046
70, 29953.66, 8521.11, -187500.02, -187500.02, -187500.02, -187500.02, -187500.02, -187500.02, 0.000, 0.000, 0.000, 02:34:53.046
71, 29970.29, 8541.50, -187500.02, -187500.02, -187500.02, -187500.02, -187500.02, -187500.02, 0.000, 0.000, 0.000, 02:34:53.046
72, 29954.71, 8545.38, -187500.02, -187500.02, -187500.02, -187500.02, -187500.02, -187500.02, 0.000, 0.000, 0.000, 02:34:53.046
73, 29935.15, 8520.60, -187500.02, -187500.02, -187500.02, -187500.02, -187500.02, -187500.02, 0.000, 0.000, 0.000, 02:34:53.046
74, 29950.62, 8530.48, -187500.02, -187500.02, -187500.02, -187500.02, -187500.02, -187500.02, 0.000, 0.000, 0.000, 02:34:53.046
75, 29991.86, 8557.83, -187500.02, -187500.02, -187500.02, -187500.02, -187500.02, -187500.02, 0.000, 0.000, 0.000, 02:34:53.046
76, 29983.99, 8552.16, -187500.02, -187500.02, -187500.02, -187500.02, -187500.02, -187500.02, 0.000, 0.000, 0.000, 02:34:53.047
77, 29947.27, 8527.84, -187500.02, -187500.02, -187500.02, -187500.02, -187500.02, -187500.02, 0.198, 0.990, -0.088, 02:34:53.047
78, 29940.18, 8526.50, -187500.02, -187500.02, -187500.02, -187500.02, -187500.02, -187500.02, 0.000, 0.000, 0.000, 02:34:53.047
79, 29983.93, 8566.69, -187500.02, -187500.02, -187500.02, -187500.02, -187500.02, -187500.02, 0.000, 0.000, 0.000, 02:34:53.047
80, 29971.47, 8565.14, -187500.02, -187500.02, -187500.02, -187500.02, -187500.02, -187500.02, 0.000, 0.000, 0.000, 02:34:53.047
81, 29940.05, 8538.68, -187500.02, -187500.02, -187500.02, -187500.02, -187500.02, -187500.02, 0.000, 0.000, 0.000, 02:34:53.047
82, 29934.73, 8525.71, -187500.02, -187500.02, -187500.02, -187500.02, -187500.02, -187500.02, 0.000, 0.000, 0.000, 02:34:53.047
83, 29977.76, 8568.36, -187500.02, -187500.02, -187500.02, -187500.02, -187500.02, -187500.02, 0.000, 0.000, 0.000, 02:34:53.047
84, 29978.11, 8575.00, -187500.02, -187500.02, -187500.02, -187500.02, -187500.02, -187500.02, 0.000, 0.000, 0.000, 02:34:53.048
85, 29957.44, 8552.18, -187500.02, -187500.02, -187500.02, -187500.02, -187500.02, -187500.02, 0.000, 0.000, 0.000, 02:34:53.048
86, 29941.19, 8524.84, -187500.02, -187500.02, -187500.02, -187500.02, -187500.02, -187500.02, 0.202, 0.994, -0.092, 02:34:53.048
87, 29964.61, 8550.30, -187500.02, -187500.02, -187500.02, -187500.02, -187500.02, -187500.02, 0.000, 0.000, 0.000, 02:34:53.048
88, 29980.71, 8576.34, -187500.02, -187500.02, -187500.02, -187500.02, -187500.02, -187500.02, 0.000, 0.000, 0.000, 02:34:53.048
89, 29957.75, 8571.38, -187500.02, -187500.02, -187500.02, -187500.02, -187500.02, -187500.02, 0.000, 0.000, 0.000, 02:34:53.048
90, 29945.99, 8551.46, -187500.02, -187500.02, -187500.02, -187500.02, -187500.02, -187500.02, 0.000, 0.000, 0.000, 02:34:53.048
91, 29963.32, 8556.56, -187500.02, -187500.02, -187500.02, -187500.02, -187500.02, -187500.02, 0.000, 0.000, 0.000, 02:34:53.048
92, 29971.83, 8564.92, -187500.02, -187500.02, -187500.02, -187500.02, -187500.02, -187500.02, 0.000, 0.000, 0.000, 02:34:53.048
93, 29968.53, 8565.97, -187500.02, -187500.02, -187500.02, -187500.02, -187500.02, -187500.02, 0.000, 0.000, 0.000, 02:34:53.049
94, 29940.34, 8544.54, -187500.02, -187500.02, -187500.02, -187500.02, -187500.02, -187500.02, 0.000, 0.000, 0.000, 02:34:53.049
95, 29955.72, 8545.38, -187500.02, -187500.02, -187500.02, -187500.02, -187500.02, -187500.02, 0.000, 0.000, 0.000, 02:34:53.049
96, 29983.93, 8571.02, -187500.02, -187500.02, -187500.02, -187500.02, -187500.02, -187500.02, 0.204, 0.998, -0.084, 02:34:53.049
97, 29976.33, 8560.16, -187500.02, -187500.02, -187500.02, -187500.02, -187500.02, -187500.02, 0.000, 0.000, 0.000, 02:34:53.049
98, 29949.12, 8542.97, -187500.02, -187500.02, -187500.02, -187500.02, -187500.02, -187500.02, 0.000, 0.000, 0.000, 02:34:53.049
99, 29954.71, 8539.80, -187500.02, -187500.02, -187500.02, -187500.02, -187500.02, -187500.02, 0.000, 0.000, 0.000, 02:34:53.049
100, 29971.34, 8568.59, -187500.02, -187500.02, -187500.02, -187500.02, -187500.02, -187500.02, 0.000, 0.000, 0.000, 02:34:53.049
101, 29973.84, 8597.46, -187500.02, -187500.02, -187500.02, -187500.02, -187500.02, -187500.02, 0.000, 0.000, 0.000, 02:34:53.049
102, 29945.44, 8564.36, -187500.02, -187500.02, -187500.02, -187500.02, -187500.02, -187500.02, 0.000, 0.000, 0.000, 02:34:53.050
103, 29932.03, 8540.85, -187500.02, -187500.02, -187500.02, -187500.02, -187500.02, -187500.02, 0.000, 0.000, 0.000, 02:34:53.050
104, 29972.30, 8587.27, -187500.02, -187500.02, -187500.02, -187500.02, -187500.02, -187500.02, 0.000, 0.000, 0.000, 02:34:53.050
105, 29968.64, 8582.20, -187500.02, -187500.02, -187500.02, -187500.02, -187500.02, -187500.02, 0.000, 0.000, 0.000, 02:34:53.050
106, 29943.04, 8557.70, -187500.02, -187500.02, -187500.02, -187500.02, -187500.02, -187500.02, 0.204, 0.998, -0.088, 02:34:53.050
107, 29929.46, 8540.76, -187500.02, -187500.02, -187500.02, -187500.02, -187500.02, -187500.02, 0.000, 0.000, 0.000, 02:34:53.050
108, 29967.59, 8564.27, -187500.02, -187500.02, -187500.02, -187500.02, -187500.02, -187500.02, 0.000, 0.000, 0.000, 02:34:53.050
109, 29978.76, 8574.22, -187500.02, -187500.02, -187500.02, -187500.02, -187500.02, -187500.02, 0.000, 0.000, 0.000, 02:34:53.050
110, 29954.53, 8561.12, -187500.02, -187500.02, -187500.02, -187500.02, -187500.02, -187500.02, 0.000, 0.000, 0.000, 02:34:53.050
111, 29919.66, 8523.35, -187500.02, -187500.02, -187500.02, -187500.02, -187500.02, -187500.02, 0.000, 0.000, 0.000, 02:34:53.050
112, 29947.25, 8547.60, -187500.02, -187500.02, -187500.02, -187500.02, -187500.02, -187500.02, 0.000, 0.000, 0.000, 02:34:53.051
113, 29967.52, 8578.11, -187500.02, -187500.02, -187500.02, -187500.02, -187500.02, -187500.02, 0.000, 0.000, 0.000, 02:34:53.051
114, 29948.25, 8543.08, -187500.02, -187500.02, -187500.02, -187500.02, -187500.02, -187500.02, 0.000, 0.000, 0.000, 02:34:53.051
115, 29916.02, 8511.97, -187500.02, -187500.02, -187500.02, -187500.02, -187500.02, -187500.02, 0.000, 0.000, 0.000, 02:34:53.051
116, 29943.71, 8543.82, -187500.02, -187500.02, -187500.02, -187500.02, -187500.02, -187500.02, 0.200, 0.996, -0.090, 02:34:53.051
117, 29964.37, 8564.21, -187500.02, -187500.02, -187500.02, -187500.02, -187500.02, -187500.02, 0.000, 0.000, 0.000, 02:34:53.051
118, 29949.06, 8558.42, -187500.02, -187500.02, -187500.02, -187500.02, -187500.02, -187500.02, 0.000, 0.000, 0.000, 02:34:53.051
119, 29926.06, 8534.10, -187500.02, -187500.02, -187500.02, -187500.02, -187500.02, -187500.02, 0.000, 0.000, 0.000, 02:34:53.051
120, 29936.94, 8529.45, -187500.02, -187500.02, -187500.02, -187500.02, -187500.02, -187500.02, 0.000, 0.000, 0.000, 02:34:53.051
121, 29964.48, 8545.36, -187500.02, -187500.02, -187500.02, -187500.02, -187500.02, -187500.02, 0.000, 0.000, 0.000, 02:34:53.511
122, 29962.74, 8550.70, -187500.02, -187500.02, -187500.02, -187500.02, -187500.02, -187500.02, 0.000, 0.000, 0.000, 02:34:53.511
123, 29921.88, 8524.91, -187500.02, -187500.02, -187500.02, -187500.02, -187500.02, -187500.02, 0.000, 0.000, 0.000, 02:34:53.511
124, 29933.19, 8524.64, -187500.02, -187500.02, -187500.02, -187500.02, -187500.02, -187500.02, 0.000, 0.000, 0.000, 02:34:53.511
125, 29964.10, 8561.72, -187500.02, -187500.02, -187500.02, -187500.02, -187500.02, -187500.02, 0.000, 0.000, 0.000, 02:34:53.511
126, 29965.48, 8568.65, -187500.02, -187500.02, -187500.02, -187500.02, -187500.02, -187500.02, 0.200, 0.998, -0.090, 02:34:53.511
127, 29937.77, 8541.36, -187500.02, -187500.02, -187500.02, -187500.02, -187500.02, -187500.02, 0.000, 0.000, 0.000, 02:34:53.511
128, 29923.13, 8526.94, -187500.02, -187500.02, -187500.02, -187500.02, -187500.02, -187500.02, 0.000, 0.000, 0.000, 02:34:53.511
129, 29956.95, 8561.30, -187500.02, -187500.02, -187500.02, -187500.02, -187500.02, -187500.02, 0.000, 0.000, 0.000, 02:34:53.512
130, 29957.37, 8560.41, -187500.02, -187500.02, -187500.02, -187500.02, -187500.02, -187500.02, 0.000, 0.000, 0.000, 02:34:53.512
131, 29954.80, 8559.40, -187500.02, -187500.02, -187500.02, -187500.02, -187500.02, -187500.02, 0.000, 0.000, 0.000, 02:34:53.512
132, 29948.97, 8544.09, -187500.02, -187500.02, -187500.02, -187500.02, -187500.02, -187500.02, 0.000, 0.000, 0.000, 02:34:53.512
133, 29989.96, 8580.25, -187500.02, -187500.02, -187500.02, -187500.02, -187500.02, -187500.02, 0.000, 0.000, 0.000, 02:34:53.512
134, 29985.58, 8585.04, -187500.02, -187500.02, -187500.02, -187500.02, -187500.02, -187500.02, 0.000, 0.000, 0.000, 02:34:53.512
135, 29959.41, 8549.18, -187500.02, -187500.02, -187500.02, -187500.02, -187500.02, -187500.02, 0.000, 0.000, 0.000, 02:34:53.512
136, 29930.44, 8524.98, -187500.02, -187500.02, -187500.02, -187500.02, -187500.02, -187500.02, 0.196, 0.996, -0.082, 02:34:53.512
137, 29964.59, 8556.20, -187500.02, -187500.02, -187500.02, -187500.02, -187500.02, -187500.02, 0.000, 0.000, 0.000, 02:34:53.513
138, 29983.41, 8565.52, -187500.02, -187500.02, -187500.02, -187500.02, -187500.02, -187500.02, 0.000, 0.000, 0.000, 02:34:53.513
139, 29970.36, 8560.23, -187500.02, -187500.02, -187500.02, -187500.02, -187500.02, -187500.02, 0.000, 0.000, 0.000, 02:34:53.513
140, 29932.47, 8526.90, -187500.02, -187500.02, -187500.02, -187500.02, -187500.02, -187500.02, 0.000, 0.000, 0.000, 02:34:53.513
141, 29951.63, 8527.21, -187500.02, -187500.02, -187500.02, -187500.02, -187500.02, -187500.02, 0.000, 0.000, 0.000, 02:34:53.513
142, 29976.06, 8565.23, -187500.02, -187500.02, -187500.02, -187500.02, -187500.02, -187500.02, 0.000, 0.000, 0.000, 02:34:53.514
143, 29967.09, 8555.20, -187500.02, -187500.02, -187500.02, -187500.02, -187500.02, -187500.02, 0.000, 0.000, 0.000, 02:34:53.514
144, 29931.09, 8518.38, -187500.02, -187500.02, -187500.02, -187500.02, -187500.02, -187500.02, 0.000, 0.000, 0.000, 02:34:53.514
145, 29940.38, 8519.01, -187500.02, -187500.02, -187500.02, -187500.02, -187500.02, -187500.02, 0.202, 0.998, -0.086, 02:34:53.514
146, 29968.66, 8565.39, -187500.02, -187500.02, -187500.02, -187500.02, -187500.02, -187500.02, 0.000, 0.000, 0.000, 02:34:53.514
147, 29963.54, 8568.79, -187500.02, -187500.02, -187500.02, -187500.02, -187500.02, -187500.02, 0.000, 0.000, 0.000, 02:34:53.514
148, 29930.15, 8530.05, -187500.02, -187500.02, -187500.02, -187500.02, -187500.02, -187500.02, 0.000, 0.000, 0.000, 02:34:53.514
149, 29926.26, 8520.64, -187500.02, -187500.02, -187500.02, -187500.02, -187500.02, -187500.02, 0.000, 0.000, 0.000, 02:34:53.514
150, 29954.60, 8546.99, -187500.02, -187500.02, -187500.02, -187500.02, -187500.02, -187500.02, 0.000, 0.000, 0.000, 02:34:53.515
151, 29958.20, 8556.65, -187500.02, -187500.02, -187500.02, -187500.02, -187500.02, -187500.02, 0.000, 0.000, 0.000, 02:34:53.515
152, 29933.19, 8536.42, -187500.02, -187500.02, -187500.02, -187500.02, -187500.02, -187500.02, 0.000, 0.000, 0.000, 02:34:53.515
153, 29921.34, 8513.69, -187500.02, -187500.02, -187500.02, -187500.02, -187500.02, -187500.02, 0.000, 0.000, 0.000, 02:34:53.515
154, 29954.94, 8539.48, -187500.02, -187500.02, -187500.02, -187500.02, -187500.02, -187500.02, 0.000, 0.000, 0.000, 02:34:53.515
155, 29957.39, 8557.52, -187500.02, -187500.02, -187500.02, -187500.02, -187500.02, -187500.02, 0.198, 0.998, -0.086, 02:34:53.515
156, 29946.75, 8541.56, -187500.02, -187500.02, -187500.02, -187500.02, -187500.02, -187500.02, 0.000, 0.000, 0.000, 02:34:53.515
157, 29929.01, 8517.65, -187500.02, -187500.02, -187500.02, -187500.02, -187500.02, -187500.02, 0.000, 0.000, 0.000, 02:34:53.515
158, 29961.82, 8542.90, -187500.02, -187500.02, -187500.02, -187500.02, -187500.02, -187500.02, 0.000, 0.000, 0.000, 02:34:53.515
159, 29964.84, 8549.34, -187500.02, -187500.02, -187500.02, -187500.02, -187500.02, -187500.02, 0.000, 0.000, 0.000, 02:34:53.515
160, 29956.50, 8541.90, -187500.02, -187500.02, -187500.02, -187500.02, -187500.02, -187500.02, 0.000, 0.000, 0.000, 02:34:53.516
161, 29925.99, 8517.15, -187500.02, -187500.02, -187500.02, -187500.02, -187500.02, -187500.02, 0.000, 0.000, 0.000, 02:34:53.516
162, 29944.90, 8530.41, -187500.02, -187500.02, -187500.02, -187500.02, -187500.02, -187500.02, 0.000, 0.000, 0.000, 02:34:53.516
163, 29969.58, 8545.61, -187500.02, -187500.02, -187500.02, -187500.02, -187500.02, -187500.02, 0.000, 0.000, 0.000, 02:34:53.516
164, 29962.36, 8538.97, -187500.02, -187500.02, -187500.02, -187500.02, -187500.02, -187500.02, 0.000, 0.000, 0.000, 02:34:53.516
165, 29929.23, 8486.17, -187500.02, -187500.02, -187500.02, -187500.02, -187500.02, -187500.02, 0.196, 1.000, -0.088, 02:34:53.516
166, 29931.76, 8514.70, -187500.02, -187500.02, -187500.02, -187500.02, -187500.02, -187500.02, 0.000, 0.000, 0.000, 02:34:53.516
167, 29962.71, 8568.92, -187500.02, -187500.02, -187500.02, -187500.02, -187500.02, -187500.02, 0.000, 0.000, 0.000, 02:34:53.516
168, 29959.85, 8550.70, -187500.02, -187500.02, -187500.02, -187500.02, -187500.02, -187500.02, 0.000, 0.000, 0.000, 02:34:53.516
169, 29926.93, 8506.49, -187500.02, -187500.02, -187500.02, -187500.02, -187500.02, -187500.02, 0.000, 0.000, 0.000, 02:34:53.517
170, 29934.88, 8525.58, -187500.02, -187500.02, -187500.02, -187500.02, -187500.02, -187500.02, 0.000, 0.000, 0.000, 02:34:53.517
171, 29965.89, 8561.88, -187500.02, -187500.02, -187500.02, -187500.02, -187500.02, -187500.02, 0.000, 0.000, 0.000, 02:34:53.517
172, 29944.09, 8531.28, -187500.02, -187500.02, -187500.02, -187500.02, -187500.02, -187500.02, 0.000, 0.000, 0.000, 02:34:53.517
173, 29921.32, 8507.50, -187500.02, -187500.02, -187500.02, -187500.02, -187500.02, -187500.02, 0.000, 0.000, 0.000, 02:34:53.517
174, 29922.86, 8504.01, -187500.02, -187500.02, -187500.02, -187500.02, -187500.02, -187500.02, 0.000, 0.000, 0.000, 02:34:53.517
175, 29956.68, 8520.98, -187500.02, -187500.02, -187500.02, -187500.02, -187500.02, -187500.02, 0.194, 0.994, -0.090, 02:34:53.517
176, 29954.09, 8516.77, -187500.02, -187500.02, -187500.02, -187500.02, -187500.02, -187500.02, 0.000, 0.000, 0.000, 02:34:53.517
177, 29944.43, 8516.98, -187500.02, -187500.02, -187500.02, -187500.02, -187500.02, -187500.02, 0.000, 0.000, 0.000, 02:34:53.517
178, 29924.96, 8515.19, -187500.02, -187500.02, -187500.02, -187500.02, -187500.02, -187500.02, 0.000, 0.000, 0.000, 02:34:53.518
179, 29955.83, 8540.40, -187500.02, -187500.02, -187500.02, -187500.02, -187500.02, -187500.02, 0.000, 0.000, 0.000, 02:34:53.518
180, 29957.48, 8542.46, -187500.02, -187500.02, -187500.02, -187500.02, -187500.02, -187500.02, 0.000, 0.000, 0.000, 02:34:53.518
181, 29940.34, 8521.22, -187500.02, -187500.02, -187500.02, -187500.02, -187500.02, -187500.02, 0.000, 0.000, 0.000, 02:34:53.518
182, 29913.72, 8479.04, -187500.02, -187500.02, -187500.02, -187500.02, -187500.02, -187500.02, 0.000, 0.000, 0.000, 02:34:53.518
183, 29946.78, 8522.81, -187500.02, -187500.02, -187500.02, -187500.02, -187500.02, -187500.02, 0.000, 0.000, 0.000, 02:34:53.518
184, 29950.87, 8540.15, -187500.02, -187500.02, -187500.02, -187500.02, -187500.02, -187500.02, 0.000, 0.000, 0.000, 02:34:53.518
185, 29932.81, 8526.92, -187500.02, -187500.02, -187500.02, -187500.02, -187500.02, -187500.02, 0.200, 0.998, -0.088, 02:34:53.518
186, 29917.65, 8498.87, -187500.02, -187500.02, -187500.02, -187500.02, -187500.02, -187500.02, 0.000, 0.000, 0.000, 02:34:53.518
187, 29940.65, 8513.38, -187500.02, -187500.02, -187500.02, -187500.02, -187500.02, -187500.02, 0.000, 0.000, 0.000, 02:34:53.518
188, 29953.17, 8519.86, -187500.02, -187500.02, -187500.02, -187500.02, -187500.02, -187500.02, 0.000, 0.000, 0.000, 02:34:53.519
189, 29946.51, 8514.00, -187500.02, -187500.02, -187500.02, -187500.02, -187500.02, -187500.02, 0.000, 0.000, 0.000, 02:34:53.519
190, 29924.16, 8500.66, -187500.02, -187500.02, -187500.02, -187500.02, -187500.02, -187500.02, 0.000, 0.000, 0.000, 02:34:53.519
191, 29932.87, 8509.40, -187500.02, -187500.02, -187500.02, -187500.02, -187500.02, -187500.02, 0.000, 0.000, 0.000, 02:34:53.519
192, 29948.88, 8534.10, -187500.02, -187500.02, -187500.02, -187500.02, -187500.02, -187500.02, 0.000, 0.000, 0.000, 02:34:53.519
193, 29939.80, 8522.36, -187500.02, -187500.02, -187500.02, -187500.02, -187500.02, -187500.02, 0.000, 0.000, 0.000, 02:34:53.519
194, 29920.85, 8490.94, -187500.02, -187500.02, -187500.02, -187500.02, -187500.02, -187500.02, 0.000, 0.000, 0.000, 02:34:53.519
195, 29929.92, 8499.83, -187500.02, -187500.02, -187500.02, -187500.02, -187500.02, -187500.02, 0.200, 1.002, -0.090, 02:34:53.519
196, 29959.52, 8529.89, -187500.02, -187500.02, -187500.02, -187500.02, -187500.02, -187500.02, 0.000, 0.000, 0.000, 02:34:53.519
197, 29955.79, 8537.87, -187500.02, -187500.02, -187500.02, -187500.02, -187500.02, -187500.02, 0.000, 0.000, 0.000, 02:34:53.519
198, 29934.86, 8506.38, -187500.02, -187500.02, -187500.02, -187500.02, -187500.02, -187500.02, 0.000, 0.000, 0.000, 02:34:53.520
199, 29933.86, 8497.86, -187500.02, -187500.02, -187500.02, -187500.02, -187500.02, -187500.02, 0.000, 0.000, 0.000, 02:34:53.520
200, 29967.90, 8537.65, -187500.02, -187500.02, -187500.02, -187500.02, -187500.02, -187500.02, 0.000, 0.000, 0.000, 02:34:53.520
201, 29960.72, 8532.73, -187500.02, -187500.02, -187500.02, -187500.02, -187500.02, -187500.02, 0.000, 0.000, 0.000, 02:34:53.520
202, 29928.20, 8507.92, -187500.02, -187500.02, -187500.02, -187500.02, -187500.02, -187500.02, 0.000, 0.000, 0.000, 02:34:53.520
203, 29915.19, 8482.67, -187500.02, -187500.02, -187500.02, -187500.02, -187500.02, -187500.02, 0.000, 0.000, 0.000, 02:34:53.520
204, 29945.01, 8507.77, -187500.02, -187500.02, -187500.02, -187500.02, -187500.02, -187500.02, 0.192, 1.004, -0.086, 02:34:53.520
205, 29954.71, 8520.31, -187500.02, -187500.02, -187500.02, -187500.02, -187500.02, -187500.02, 0.000, 0.000, 0.000, 02:34:53.520
206, 29934.53, 8498.09, -187500.02, -187500.02, -187500.02, -187500.02, -187500.02, -187500.02, 0.000, 0.000, 0.000, 02:34:53.520
207, 29919.84, 8487.27, -187500.02, -187500.02, -187500.02, -187500.02, -187500.02, -187500.02, 0.000, 0.000, 0.000, 02:34:53.520
208, 29944.94, 8505.93, -187500.02, -187500.02, -187500.02, -187500.02, -187500.02, -187500.02, 0.000, 0.000, 0.000, 02:34:53.521
209, 29953.79, 8516.82, -187500.02, -187500.02, -187500.02, -187500.02, -187500.02, -187500.02, 0.000, 0.000, 0.000, 02:34:53.521
210, 29933.66, 8507.83, -187500.02, -187500.02, -187500.02, -187500.02, -187500.02, -187500.02, 0.000, 0.000, 0.000, 02:34:53.521
211, 29907.17, 8484.12, -187500.02, -187500.02, -187500.02, -187500.02, -187500.02, -187500.02, 0.000, 0.000, 0.000, 02:34:53.521
212, 29921.63, 8486.93, -187500.02, -187500.02, -187500.02, -187500.02, -187500.02, -187500.02, 0.000, 0.000, 0.000, 02:34:53.521
213, 29952.30, 8502.80, -187500.02, -187500.02, -187500.02, -187500.02, -187500.02, -187500.02, 0.000, 0.000, 0.000, 02:34:53.521
214, 29953.35, 8522.18, -187500.02, -187500.02, -187500.02, -187500.02, -187500.02, -187500.02, 0.194, 0.998, -0.090, 02:34:53.521
215, 29929.95, 8505.38, -187500.02, -187500.02, -187500.02, -187500.02, -187500.02, -187500.02, 0.000, 0.000, 0.000, 02:34:53.521
216, 29935.15, 8499.50, -187500.02, -187500.02, -187500.02, -187500.02, -187500.02, -187500.02, 0.000, 0.000, 0.000, 02:34:53.521
217, 29954.22, 8512.71, -187500.02, -187500.02, -187500.02, -187500.02, -187500.02, -187500.02, 0.000, 0.000, 0.000, 02:34:53.521
218, 29948.32, 8507.07, -187500.02, -187500.02, -187500.02, -187500.02, -187500.02, -187500.02, 0.000, 0.000, 0.000, 02:34:53.522
219, 29919.51, 8482.42, -187500.02, -187500.02, -187500.02, -187500.02, -187500.02, -187500.02, 0.000, 0.000, 0.000, 02:34:53.522
220, 29915.82, 8484.36, -187500.02, -187500.02, -187500.02, -187500.02, -187500.02, -187500.02, 0.000, 0.000, 0.000, 02:34:53.522
221, 29953.04, 8509.15, -187500.02, -187500.02, -187500.02, -187500.02, -187500.02, -187500.02, 0.000, 0.000, 0.000, 02:34:53.522
222, 29951.11, 8507.21, -187500.02, -187500.02, -187500.02, -187500.02, -187500.02, -187500.02, 0.000, 0.000, 0.000, 02:34:53.522
223, 29942.17, 8508.95, -187500.02, -187500.02, -187500.02, -187500.02, -187500.02, -187500.02, 0.000, 0.000, 0.000, 02:34:53.522
224, 29935.78, 8506.63, -187500.02, -187500.02, -187500.02, -187500.02, -187500.02, -187500.02, 0.198, 0.994, -0.092, 02:34:53.522
225, 29975.43, 8538.66, -187500.02, -187500.02, -187500.02, -187500.02, -187500.02, -187500.02, 0.000, 0.000, 0.000, 02:34:53.522
226, 29976.35, 8532.67, -187500.02, -187500.02, -187500.02, -187500.02, -187500.02, -187500.02, 0.000, 0.000, 0.000, 02:34:53.522
227, 29944.14, 8496.30, -187500.02, -187500.02, -187500.02, -187500.02, -187500.02, -187500.02, 0.000, 0.000, 0.000, 02:34:53.522
228, 29916.45, 8476.97, -187500.02, -187500.02, -187500.02, -187500.02, -187500.02, -187500.02, 0.000, 0.000, 0.000, 02:34:53.523
229, 29938.10, 8514.03, -187500.02, -187500.02, -187500.02, -187500.02, -187500.02, -187500.02, 0.000, 0.000, 0.000, 02:34:53.523
230, 29954.00, 8522.74, -187500.02, -187500.02, -187500.02, -187500.02, -187500.02, -187500.02, 0.000, 0.000, 0.000, 02:34:53.523
231, 29932.94, 8504.82, -187500.02, -187500.02, -187500.02, -187500.02, -187500.02, -187500.02, 0.000, 0.000, 0.000, 02:34:53.523
232, 29917.23, 8476.85, -187500.02, -187500.02, -187500.02, -187500.02, -187500.02, -187500.02, 0.000, 0.000, 0.000, 02:34:53.523
233, 29951.16, 8498.60, -187500.02, -187500.02, -187500.02, -187500.02, -187500.02, -187500.02, 0.000, 0.000, 0.000, 02:34:53.523
234, 29953.57, 8506.72, -187500.02, -187500.02, -187500.02, -187500.02, -187500.02, -187500.02, 0.202, 0.994, -0.092, 02:34:53.523
235, 29935.53, 8491.56, -187500.02, -187500.02, -187500.02, -187500.02, -187500.02, -187500.02, 0.000, 0.000, 0.000, 02:34:53.523
236, 29910.90, 8471.78, -187500.02, -187500.02, -187500.02, -187500.02, -187500.02, -187500.02, 0.000, 0.000, 0.000, 02:34:53.523
237, 29939.42, 8504.64, -187500.02, -187500.02, -187500.02, -187500.02, -187500.02, -187500.02, 0.000, 0.000, 0.000, 02:34:53.524
238, 29960.70, 8513.47, -187500.02, -187500.02, -187500.02, -187500.02, -187500.02, -187500.02, 0.000, 0.000, 0.000, 02:34:53.524
239, 29954.89, 8503.25, -187500.02, -187500.02, -187500.02, -187500.02, -187500.02, -187500.02, 0.000, 0.000, 0.000, 02:34:53.524
240, 29913.14, 8479.42, -187500.02, -187500.02, -187500.02, -187500.02, -187500.02, -187500.02, 0.000, 0.000, 0.000, 02:34:53.524
241, 29916.78, 8473.14, -187500.02, -187500.02, -187500.02, -187500.02, -187500.02, -187500.02, 0.000, 0.000, 0.000, 02:34:53.991
242, 29949.73, 8489.26, -187500.02, -187500.02, -187500.02, -187500.02, -187500.02, -187500.02, 0.000, 0.000, 0.000, 02:34:53.992
243, 29941.41, 8486.46, -187500.02, -187500.02, -187500.02, -187500.02, -187500.02, -187500.02, 0.000, 0.000, 0.000, 02:34:53.992
244, 29933.03, 8503.79, -187500.02, -187500.02, -187500.02, -187500.02, -187500.02, -187500.02, 0.200, 0.998, -0.092, 02:34:53.992
245, 29932.74, 8483.07, -187500.02, -187500.02, -187500.02, -187500.02, -187500.02, -187500.02, 0.000, 0.000, 0.000, 02:34:53.992
246, 29952.90, 8488.99, -187500.02, -187500.02, -187500.02, -187500.02, -187500.02, -187500.02, 0.000, 0.000, 0.000, 02:34:53.992
247, 29953.08, 8503.59, -187500.02, -187500.02, -187500.02, -187500.02, -187500.02, -187500.02, 0.000, 0.000, 0.000, 02:34:53.992
248, 29925.47, 8486.00, -187500.02, -187500.02, -187500.02, -187500.02, -187500.02, -187500.02, 0.000, 0.000, 0.000, 02:34:53.992
249, 29920.96, 8468.94, -187500.02, -187500.02, -187500.02, -187500.02, -187500.02, -187500.02, 0.000, 0.000, 0.000, 02:34:53.992
250, 29951.27, 8483.51, -187500.02, -187500.02, -187500.02, -187500.02, -187500.02, -187500.02, 0.000, 0.000, 0.000, 02:34:53.992
251, 29943.71, 8481.03, -187500.02, -187500.02, -187500.02, -187500.02, -187500.02, -187500.02, 0.000, 0.000, 0.000, 02:34:53.993
252, 29930.06, 8481.37, -187500.02, -187500.02, -187500.02, -187500.02, -187500.02, -187500.02, 0.000, 0.000, 0.000, 02:34:53.993
253, 29912.20, 8468.70, -187500.02, -187500.02, -187500.02, -187500.02, -187500.02, -187500.02, 0.000, 0.000, 0.000, 02:34:53.993
254, 29937.90, 8487.09, -187500.02, -187500.02, -187500.02, -187500.02, -187500.02, -187500.02, 0.194, 0.994, -0.090, 02:34:53.993
255, 29946.51, 8498.65, -187500.02, -187500.02, -187500.02, -187500.02, -187500.02, -187500.02, 0.000, 0.000, 0.000, 02:34:53.993
0, 29926.39, 8491.72, -187500.02, -187500.02, -187500.02, -187500.02, -187500.02, -187500.02, 0.000, 0.000, 0.000, 02:34:53.994
1, 29897.94, 8464.14, -187500.02, -187500.02, -187500.02, -187500.02, -187500.02, -187500.02, 0.000, 0.000, 0.000, 02:34:53.994
2, 29936.07, 8487.29, -187500.02, -187500.02, -187500.02, -187500.02, -187500.02, -187500.02, 0.000, 0.000, 0.000, 02:34:53.994
3, 29958.56, 8510.29, -187500.02, -187500.02, -187500.02, -187500.02, -187500.02, -187500.02, 0.000, 0.000, 0.000, 02:34:53.994
4, 29937.01, 8487.58, -187500.02, -187500.02, -187500.02, -187500.02, -187500.02, -187500.02, 0.000, 0.000, 0.000, 02:34:53.994
5, 29911.10, 8463.00, -187500.02, -187500.02, -187500.02, -187500.02, -187500.02, -187500.02, 0.000, 0.000, 0.000, 02:34:53.994
6, 29935.76, 8492.25, -187500.02, -187500.02, -187500.02, -187500.02, -187500.02, -187500.02, 0.000, 0.000, 0.000, 02:34:53.994
7, 29958.49, 8508.55, -187500.02, -187500.02, -187500.02, -187500.02, -187500.02, -187500.02, 0.200, 0.998, -0.090, 02:34:53.994
8, 29941.35, 8486.29, -187500.02, -187500.02, -187500.02, -187500.02, -187500.02, -187500.02, 0.000, 0.000, 0.000, 02:34:53.994
9, 29923.69, 8462.93, -187500.02, -187500.02, -187500.02, -187500.02, -187500.02, -187500.02, 0.000, 0.000, 0.000, 02:34:53.994
10, 29941.14, 8465.52, -187500.02, -187500.02, -187500.02, -187500.02, -187500.02, -187500.02, 0.000, 0.000, 0.000, 02:34:53.994
11, 29950.42, 8487.47, -187500.02, -187500.02, -187500.02, -187500.02, -187500.02, -187500.02, 0.000, 0.000, 0.000, 02:34:53.995
12, 29949.71, 8495.12, -187500.02, -187500.02, -187500.02, -187500.02, -187500.02, -187500.02, 0.000, 0.000, 0.000, 02:34:53.995
13, 29918.28, 8471.38, -187500.02, -187500.02, -187500.02, -187500.02, -187500.02, -187500.02, 0.000, 0.000, 0.000, 02:34:53.995
14, 29912.47, 8463.82, -187500.02, -187500.02, -187500.02, -187500.02, -187500.02, -187500.02, 0.000, 0.000, 0.000, 02:34:53.995
15, 29951.49, 8496.03, -187500.02, -187500.02, -187500.02, -187500.02, -187500.02, -187500.02, 0.000, 0.000, 0.000, 02:34:53.995
16, 29955.70, 8489.73, -187500.02, -187500.02, -187500.02, -187500.02, -187500.02, -187500.02, 0.000, 0.000, 0.000, 02:34:53.995
17, 29924.43, 8460.67, -187500.02, -187500.02, -187500.02, -187500.02, -187500.02, -187500.02, 0.202, 1.004, -0.090, 02:34:53.995
18, 29905.49, 8451.69, -187500.02, -187500.02, -187500.02, -187500.02, -187500.02, -187500.02, 0.000, 0.000, 0.000, 02:34:53.996
19, 29942.31, 8486.53, -187500.02, -187500.02, -187500.02, -187500.02, -187500.02, -187500.02, 0.000, 0.000, 0.000, 02:34:53.996
20, 29953.82, 8493.71, -187500.02, -187500.02, -187500.02, -187500.02, -187500.02, -187500.02, 0.000, 0.000, 0.000, 02:34:53.996
21, 29938.28, 8482.42, -187500.02, -187500.02, -187500.02, -187500.02, -187500.02, -187500.02, 0.000, 0.000, 0.000, 02:34:53.996
22, 29912.15, 8453.70, -187500.02, -187500.02, -187500.02, -187500.02, -187500.02, -187500.02, 0.000, 0.000, 0.000, 02:34:53.996
23, 29948.92, 8476.83, -187500.02, -187500.02, -187500.02, -187500.02, -187500.02, -187500.02, 0.000, 0.000, 0.000, 02:34:53.996
24, 29957.44, 8488.75, -187500.02, -187500.02, -187500.02, -187500.02, -187500.02, -187500.02, 0.000, 0.000, 0.000, 02:34:53.996
25, 29941.37, 8479.25, -187500.02, -187500.02, -187500.02, -187500.02, -187500.02, -187500.02, 0.000, 0.000, 0.000, 02:34:53.996
26, 29916.91, 8453.07, -187500.02, -187500.02, -187500.02, -187500.02, -187500.02, -187500.02, 0.000, 0.000, 0.000, 02:34:53.997
27, 29942.80, 8466.26, -187500.02, -187500.02, -187500.02, -187500.02, -187500.02, -187500.02, 0.202, 1.000, -0.086, 02:34:53.997
28, 29961.19, 8486.42, -187500.02, -187500.02, -187500.02, -187500.02, -187500.02, -187500.02, 0.000, 0.000, 0.000, 02:34:53.997
29, 29937.84, 8467.51, -187500.02, -187500.02, -187500.02, -187500.02, -187500.02, -187500.02, 0.000, 0.000, 0.000, 02:34:53.997
30, 29912.87, 8445.74, -187500.02, -187500.02, -187500.02, -187500.02, -187500.02, -187500.02, 0.000, 0.000, 0.000, 02:34:53.997
31, 29932.07, 8451.73, -187500.02, -187500.02, -187500.02, -187500.02, -187500.02, -187500.02, 0.000, 0.000, 0.000, 02:34:53.997
32, 29956.43, 8474.02, -187500.02, -187500.02, -187500.02, -187500.02, -187500.02, -187500.02, 0.000, 0.000, 0.000, 02:34:53.997
33, 29948.63, 8487.54, -187500.02, -187500.02, -187500.02, -187500.02, -187500.02, -187500.02, 0.000, 0.000, 0.000, 02:34:53.997
34, 29911.97, 8455.11, -187500.02, -187500.02, -187500.02, -187500.02, -187500.02, -187500.02, 0.000, 0.000, 0.000, 02:34:53.998
35, 29927.15, 8461.41, -187500.02, -187500.02, -187500.02, -187500.02, -187500.02, -187500.02, 0.000, 0.000, 0.000, 02:34:53.998
36, 29958.91, 8481.03, -187500.02, -187500.02, -187500.02, -187500.02, -187500.02, -187500.02, 0.000, 0.000, 0.000, 02:34:53.998
37, 29958.36, 8481.66, -187500.02, -187500.02, -187500.02, -187500.02, -187500.02, -187500.02, 0.210, 0.994, -0.084, 02:34:53.998
38, 29935.20, 8467.27, -187500.02, -187500.02, -187500.02, -187500.02, -187500.02, -187500.02, 0.000, 0.000, 0.000, 02:34:53.998
39, 29938.24, 8473.34, -187500.02, -187500.02, -187500.02, -187500.02, -187500.02, -187500.02, 0.000, 0.000, 0.000, 02:34:53.998
40, 29966.67, 8493.17, -187500.02, -187500.02, -187500.02, -187500.02, -187500.02, -187500.02, 0.000, 0.000, 0.000, 02:34:53.998
41, 29963.25, 8501.73, -187500.02, -187500.02, -187500.02, -187500.02, -187500.02, -187500.02, 0.000, 0.000, 0.000, 02:34:53.998
42, 29948.65, 8502.54, -187500.02, -187500.02, -187500.02, -187500.02, -187500.02, -187500.02, 0.000, 0.000, 0.000, 02:34:53.998
43, 29933.90, 8486.80, -187500.02, -187500.02, -187500.02, -187500.02, -187500.02, -187500.02, 0.000, 0.000, 0.000, 02:34:53.999
44, 29967.81, 8515.48, -187500.02, -187500.02, -187500.02, -187500.02, -187500.02, -187500.02, 0.000, 0.000, 0.000, 02:34:53.999
45, 29962.09, 8516.30, -187500.02, -187500.02, -187500.02, -187500.02, -187500.02, -187500.02, 0.000, 0.000, 0.000, 02:34:53.999
46, 29943.54, 8503.45, -187500.02, -187500.02, -187500.02, -187500.02, -187500.02, -187500.02, 0.000, 0.000, 0.000, 02:34:53.999
47, 29929.79, 8488.83, -187500.02, -187500.02, -187500.02, -187500.02, -187500.02, -187500.02, 0.210, 0.996, -0.088, 02:34:53.999
48, 29957.13, 8520.17, -187500.02, -187500.02, -187500.02, -187500.02, -187500.02, -187500.02, 0.000, 0.000, 0.000, 02:34:53.999
49, 29966.80, 8529.11, -187500.02, -187500.02, -187500.02, -187500.02, -187500.02, -187500.02, 0.000, 0.000, 0.000, 02:34:53.999
50, 29954.55, 8522.03, -187500.02, -187500.02, -187500.02, -187500.02, -187500.02, -187500.02, 0.000, 0.000, 0.000, 02:34:53.999
51, 29929.07, 8518.32, -187500.02, -187500.02, -187500.02, -187500.02, -187500.02, -187500.02, 0.000, 0.000, 0.000, 02:34:53.999
52, 29950.02, 8541.72, -187500.02, -187500.02, -187500.02, -187500.02, -187500.02, -187500.02, 0.000, 0.000, 0.000, 02:34:54.000
53, 29972.79, 8559.24, -187500.02, -187500.02, -187500.02, -187500.02, -187500.02, -187500.02, 0.000, 0.000, 0.000, 02:34:54.000
54, 29958.56, 8548.13, -187500.02, -187500.02, -187500.02, -187500.02, -187500.02, -187500.02, 0.000, 0.000, 0.000, 02:34:54.000
55, 29935.40, 8526.25, -187500.02, -187500.02, -187500.02, -187500.02, -187500.02, -187500.02, 0.000, 0.000, 0.000, 02:34:54.000
56, 29944.61, 8519.08, -187500.02, -187500.02, -187500.02, -187500.02, -187500.02, -187500.02, 0.000, 0.000, 0.000, 02:34:54.000
57, 29961.91, 8536.60, -187500.02, -187500.02, -187500.02, -187500.02, -187500.02, -187500.02, 0.206, 0.990, -0.084, 02:34:54.000
58, 29965.60, 8544.18, -187500.02, -187500.02, -187500.02, -187500.02, -187500.02, -187500.02, 0.000, 0.000, 0.000, 02:34:54.000
59, 29957.53, 8538.34, -187500.02, -187500.02, -187500.02, -187500.02, -187500.02, -187500.02, 0.000, 0.000, 0.000, 02:34:54.000
60, 29961.98, 8555.87, -187500.02, -187500.02, -187500.02, -187500.02, -187500.02, -187500.02, 0.000, 0.000, 0.000, 02:34:54.000
61, 29991.64, 8586.22, -187500.02, -187500.02, -187500.02, -187500.02, -187500.02, -187500.02, 0.000, 0.000, 0.000, 02:34:54.001
62, 29977.02, 8573.19, -187500.02, -187500.02, -187500.02, -187500.02, -187500.02, -187500.02, 0.000, 0.000, 0.000, 02:34:54.001
63, 29948.77, 8543.42, -187500.02, -187500.02, -187500.02, -187500.02, -187500.02, -187500.02, 0.000, 0.000, 0.000, 02:34:54.001
64, 29939.89, 8524.26, -187500.02, -187500.02, -187500.02, -187500.02, -187500.02, -187500.02, 0.000, 0.000, 0.000, 02:34:54.001
65, 29972.95, 8566.22, -187500.02, -187500.02, -187500.02, -187500.02, -187500.02, -187500.02, 0.000, 0.000, 0.000, 02:34:54.001
66, 29971.21, 8580.01, -187500.02, -187500.02, -187500.02, -187500.02, -187500.02, -187500.02, 0.000, 0.000, 0.000, 02:34:54.001
67, 29949.41, 8552.43, -187500.02, -187500.02, -187500.02, -187500.02, -187500.02, -187500.02, 0.202, 0.994, -0.086, 02:34:54.001
68, 29930.95, 8527.41, -187500.02, -187500.02, -187500.02, -187500.02, -187500.02, -187500.02, 0.000, 0.000, 0.000, 02:34:54.001
69, 29956.46, 8543.13, -187500.02, -187500.02, -187500.02, -187500.02, -187500.02, -187500.02, 0.000, 0.000, 0.000, 02:34:54.001
70, 29969.51, 8561.63, -187500.02, -187500.02, -187500.02, -187500.02, -187500.02, -187500.02, 0.000, 0.000, 0.000, 02:34:54.002
71, 29951.02, 8551.75, -187500.02, -187500.02, -187500.02, -187500.02, -187500.02, -187500.02, 0.000, 0.000, 0.000, 02:34:54.002
72, 29919.80, 8526.90, -187500.02, -187500.02, -187500.02, -187500.02, -187500.02, -187500.02, 0.000, 0.000, 0.000, 02:34:54.002
73, 29943.80, 8553.41, -187500.02, -187500.02, -187500.02, -187500.02, -187500.02, -187500.02, 0.000, 0.000, 0.000, 02:34:54.002
74, 29963.92, 8576.36, -187500.02, -187500.02, -187500.02, -187500.02, -187500.02, -187500.02, 0.000, 0.000, 0.000, 02:34:54.002
75, 29951.85, 8563.71, -187500.02, -187500.02, -187500.02, -187500.02, -187500.02, -187500.02, 0.000, 0.000, 0.000, 02:34:54.002
76, 29914.28, 8531.50, -187500.02, -187500.02, -187500.02, -187500.02, -187500.02, -187500.02, 0.198, 0.994, -0.084, 02:34:54.002
77, 29933.63, 8550.06, -187500.02, -187500.02, -187500.02, -187500.02, -187500.02, -187500.02, 0.000, 0.000, 0.000, 02:34:54.002
78, 29972.48, 8586.89, -187500.02, -187500.02, -187500.02, -187500.02, -187500.02, -187500.02, 0.000, 0.000, 0.000, 02:34:54.002
79, 29958.33, 8562.19, -187500.02, -187500.02, -187500.02, -187500.02, -187500.02, -187500.02, 0.000, 0.000, 0.000, 02:34:54.003
80, 29937.14, 8523.12, -187500.02, -187500.02, -187500.02, -187500.02, -187500.02, -187500.02, 0.000, 0.000, 0.000, 02:34:54.003
81, 29939.58, 8558.55, -187500.02, -187500.02, -187500.02, -187500.02, -187500.02, -187500.02, 0.000, 0.000, 0.000, 02:34:54.003
82, 29968.08, 8602.45, -187500.02, -187500.02, -187500.02, -187500.02, -187500.02, -187500.02, 0.000, 0.000, 0.000, 02:34:54.003
83, 29952.72, 8580.90, -187500.02, -187500.02, -187500.02, -187500.02, -187500.02, -187500.02, 0.000, 0.000, 0.000, 02:34:54.003
84, 29926.04, 8560.49, -187500.02, -187500.02, -187500.02, -187500.02, -187500.02, -187500.02, 0.000, 0.000, 0.000, 02:34:54.003
85, 29931.94, 8554.71, -187500.02, -187500.02, -187500.02, -187500.02, -187500.02, -187500.02, 0.000, 0.000, 0.000, 02:34:54.003
86, 29959.27, 8564.58, -187500.02, -187500.02, -187500.02, -187500.02, -187500.02, -187500.02, 0.196, 0.994, -0.082, 02:34:54.003
87, 29958.73, 8568.50, -187500.02, -187500.02, -187500.02, -187500.02, -187500.02, -187500.02, 0.000, 0.000, 0.000, 02:34:54.003
88, 29934.93, 8563.47, -187500.02, -187500.02, -187500.02, -187500.02, -187500.02, -187500.02, 0.000, 0.000, 0.000, 02:34:54.004
89, 29924.69, 8543.91, -187500.02, -187500.02, -187500.02, -187500.02, -187500.02, -187500.02, 0.000, 0.000, 0.000, 02:34:54.004
90, 29958.67, 8572.21, -187500.02, -187500.02, -187500.02, -187500.02, -187500.02, -187500.02, 0.000, 0.000, 0.000, 02:34:54.004
91, 29968.08, 8574.20, -187500.02, -187500.02, -187500.02, -187500.02, -187500.02, -187500.02, 0.000, 0.000, 0.000, 02:34:54.004
92, 29954.09, 8565.32, -187500.02, -187500.02, -187500.02, -187500.02, -187500.02, -187500.02, 0.000, 0.000, 0.000, 02:34:54.004
93, 29923.66, 8545.50, -187500.02, -187500.02, -187500.02, -187500.02, -187500.02, -187500.02, 0.000, 0.000, 0.000, 02:34:54.004
94, 29941.05, 8559.71, -187500.02, -187500.02, -187500.02, -187500.02, -187500.02, -187500.02, 0.000, 0.000, 0.000, 02:34:54.004
95, 29951.76, 8569.95, -187500.02, -187500.02, -187500.02, -187500.02, -187500.02, -187500.02, 0.000, 0.000, 0.000, 02:34:54.004
96, 29948.52, 8566.75, -187500.02, -187500.02, -187500.02, -187500.02, -187500.02, -187500.02, 0.200, 0.994, -0.082, 02:34:54.004
97, 29927.20, 8541.41, -187500.02, -187500.02, -187500.02, -187500.02, -187500.02, -187500.02, 0.000, 0.000, 0.000, 02:34:54.005
98, 29943.18, 8541.96, -187500.02, -187500.02, -187500.02, -187500.02, -187500.02, -187500.02, 0.000, 0.000, 0.000, 02:34:54.005
99, 29967.90, 8563.02, -187500.02, -187500.02, -187500.02, -187500.02, -187500.02, -187500.02, 0.000, 0.000, 0.000, 02:34:54.005
100, 29935.60, 8548.78, -187500.02, -187500.02, -187500.02, -187500.02, -187500.02, -187500.02, 0.000, 0.000, 0.000, 02:34:54.005
101, 29909.18, 8520.10, -187500.02, -187500.02, -187500.02, -187500.02, -187500.02, -187500.02, 0.000, 0.000, 0.000, 02:34:54.005
102, 29936.99, 8535.13, -187500.02, -187500.02, -187500.02, -187500.02, -187500.02, -187500.02, 0.000, 0.000, 0.000, 02:34:54.005
103, 29956.70, 8565.05, -187500.02, -187500.02, -187500.02, -187500.02, -187500.02, -187500.02, 0.000, 0.000, 0.000, 02:34:54.005
104, 29942.60, 8551.67, -187500.02, -187500.02, -187500.02, -187500.02, -187500.02, -187500.02, 0.000, 0.000, 0.000, 02:34:54.005
105, 29917.83, 8520.78, -187500.02, -187500.02, -187500.02, -187500.02, -187500.02, -187500.02, 0.000, 0.000, 0.000, 02:34:54.471
106, 29933.81, 8538.77, -187500.02, -187500.02, -187500.02, -187500.02, -187500.02, -187500.02, 0.204, 0.994, -0.080, 02:34:54.471
107, 29960.17, 8566.93, -187500.02, -187500.02, -187500.02, -187500.02, -187500.02, -187500.02, 0.000, 0.000, 0.000, 02:34:54.471
108, 29945.66, 8563.89, -187500.02, -187500.02, -187500.02, -187500.02, -187500.02, -187500.02, 0.000, 0.000, 0.000, 02:34:54.471
109, 29924.47, 8549.05, -187500.02, -187500.02, -187500.02, -187500.02, -187500.02, -187500.02, 0.000, 0.000, 0.000, 02:34:54.471
110, 29918.39, 8532.49, -187500.02, -187500.02, -187500.02, -187500.02, -187500.02, -187500.02, 0.000, 0.000, 0.000, 02:34:54.472
111, 29955.05, 8564.43, -187500.02, -187500.02, -187500.02, -187500.02, -187500.02, -187500.02, 0.000, 0.000, 0.000, 02:34:54.472
112, 29952.01, 8565.66, -187500.02, -187500.02, -187500.02, -187500.02, -187500.02, -187500.02, 0.000, 0.000, 0.000, 02:34:54.472
113, 29934.26, 8541.41, -187500.02, -187500.02, -187500.02, -187500.02, -187500.02, -187500.02, 0.000, 0.000, 0.000, 02:34:54.472
114, 29918.97, 8533.78, -187500.02, -187500.02, -187500.02, -187500.02, -187500.02, -187500.02, 0.000, 0.000, 0.000, 02:34:54.472
115, 29947.96, 8570.20, -187500.02, -187500.02, -187500.02, -187500.02, -187500.02, -187500.02, 0.000, 0.000, 0.000, 02:34:54.472
116, 29941.70, 8564.63, -187500.02, -187500.02, -187500.02, -187500.02, -187500.02, -187500.02, 0.210, 1.000, -0.084, 02:34:54.472
117, 29922.41, 8544.07, -187500.02, -187500.02, -187500.02, -187500.02, -187500.02, -187500.02, 0.000, 0.000, 0.000, 02:34:54.472
118, 29898.54, 8512.35, -187500.02, -187500.02, -187500.02, -187500.02, -187500.02, -187500.02, 0.000, 0.000, 0.000, 02:34:54.473
119, 29931.87, 8545.99, -187500.02, -187500.02, -187500.02, -187500.02, -187500.02, -187500.02, 0.000, 0.000, 0.000, 02:34:54.473
120, 29937.75, 8560.18, -187500.02, -187500.02, -187500.02, -187500.02, -187500.02, -187500.02, 0.000, 0.000, 0.000, 02:34:54.473
121, 29918.55, 8529.45, -187500.02, -187500.02, -187500.02, -187500.02, -187500.02, -187500.02, 0.000, 0.000, 0.000, 02:34:54.473
122, 29894.59, 8506.36, -187500.02, -187500.02, -187500.02, -187500.02, -187500.02, -187500.02, 0.000, 0.000, 0.000, 02:34:54.473
123, 29936.21, 8537.20, -187500.02, -187500.02, -187500.02, -187500.02, -187500.02, -187500.02, 0.000, 0.000, 0.000, 02:34:54.473
124, 29956.84, 8576.81, -187500.02, -187500.02, -187500.02, -187500.02, -187500.02, -187500.02, 0.000, 0.000, 0.000, 02:34:54.474
125, 29941.01, 8554.08, -187500.02, -187500.02, -187500.02, -187500.02, -187500.02, -187500.02, 0.000, 0.000, 0.000, 02:34:54.474
126, 29908.33, 8516.19, -187500.02, -187500.02, -187500.02, -187500.02, -187500.02, -187500.02, 0.202, 0.994, -0.086, 02:34:54.474
127, 29927.60, 8533.11, -187500.02, -187500.02, -187500.02, -187500.02, -187500.02, -187500.02, 0.000, 0.000, 0.000, 02:34:54.474
128, 29951.34, 8560.67, -187500.02, -187500.02, -187500.02, -187500.02, -187500.02, -187500.02, 0.000, 0.000, 0.000, 02:34:54.474
129, 29939.67, 8541.47, -187500.02, -187500.02, -187500.02, -187500.02, -187500.02, -187500.02, 0.000, 0.000, 0.000, 02:34:54.474
130, 29914.99, 8536.11, -187500.02, -187500.02, -187500.02, -187500.02, -187500.02, -187500.02, 0.000, 0.000, 0.000, 02:34:54.474
131, 29925.30, 8547.55, -187500.02, -187500.02, -187500.02, -187500.02, -187500.02, -187500.02, 0.000, 0.000, 0.000, 02:34:54.474
132, 29951.98, 8572.63, -187500.02, -187500.02, -187500.02, -187500.02, -187500.02, -187500.02, 0.000, 0.000, 0.000, 02:34:54.475
133, 29945.50, 8554.44, -187500.02, -187500.02, -187500.02, -187500.02, -187500.02, -187500.02, 0.000, 0.000, 0.000, 02:34:54.475
134, 29912.80, 8518.74, -187500.02, -187500.02, -187500.02, -187500.02, -187500.02, -187500.02, 0.000, 0.000, 0.000, 02:34:54.475
135, 29910.52, 8514.18, -187500.02, -187500.02, -187500.02, -187500.02, -187500.02, -187500.02, 0.202, 0.990, -0.086, 02:34:54.475
136, 29947.34, 8550.68, -187500.02, -187500.02, -187500.02, -187500.02, -187500.02, -187500.02, 0.000, 0.000, 0.000, 02:34:54.475
137, 29942.55, 8557.50, -187500.02, -187500.02, -187500.02, -187500.02, -187500.02, -187500.02, 0.000, 0.000, 0.000, 02:34:54.475
138, 29926.08, 8546.93, -187500.02, -187500.02, -187500.02, -187500.02, -187500.02, -187500.02, 0.000, 0.000, 0.000, 02:34:54.476
139, 29910.90, 8521.58, -187500.02, -187500.02, -187500.02, -187500.02, -187500.02, -187500.02, 0.000, 0.000, 0.000, 02:34:54.476
140, 29935.96, 8546.79, -187500.02, -187500.02, -187500.02, -187500.02, -187500.02, -187500.02, 0.000, 0.000, 0.000, 02:34:54.476
141, 29954.31, 8554.75, -187500.02, -187500.02, -187500.02, -187500.02, -187500.02, -187500.02, 0.000, 0.000, 0.000, 02:34:54.476
142, 29932.85, 8528.29, -187500.02, -187500.02, -187500.02, -187500.02, -187500.02, -187500.02, 0.000, 0.000, 0.000, 02:34:54.477
143, 29902.90, 8524.75, -187500.02, -187500.02, -187500.02, -187500.02, -187500.02, -187500.02, 0.000, 0.000, 0.000, 02:34:54.477
144, 29938.80, 8544.49, -187500.02, -187500.02, -187500.02, -187500.02, -187500.02, -187500.02, 0.000, 0.000, 0.000, 02:34:54.477
145, 29954.96, 8538.99, -187500.02, -187500.02, -187500.02, -187500.02, -187500.02, -187500.02, 0.200, 1.000, -0.084, 02:34:54.477
146, 29936.34, 8518.32, -187500.02, -187500.02, -187500.02, -187500.02, -187500.02, -187500.02, 0.000, 0.000, 0.000, 02:34:54.477
147, 29906.72, 8525.47, -187500.02, -187500.02, -187500.02, -187500.02, -187500.02, -187500.02, 0.000, 0.000, 0.000, 02:34:54.477
148, 29924.54, 8533.34, -187500.02, -187500.02, -187500.02, -187500.02, -187500.02, -187500.02, 0.000, 0.000, 0.000, 02:34:54.478
149, 29951.09, 8556.05, -187500.02, -187500.02, -187500.02, -187500.02, -187500.02, -187500.02, 0.000, 0.000, 0.000, 02:34:54.478
150, 29937.52, 8546.32, -187500.02, -187500.02, -187500.02, -187500.02, -187500.02, -187500.02, 0.000, 0.000, 0.000, 02:34:54.478
151, 29904.91, 8522.54, -187500.02, -187500.02, -187500.02, -187500.02, -187500.02, -187500.02, 0.000, 0.000, 0.000, 02:34:54.478
152, 29918.86, 8525.13, -187500.02, -187500.02, -187500.02, -187500.02, -187500.02, -187500.02, 0.000, 0.000, 0.000, 02:34:54.478
153, 29942.91, 8546.32, -187500.02, -187500.02, -187500.02, -187500.02, -187500.02, -187500.02, 0.000, 0.000, 0.000, 02:34:54.478
154, 29942.26, 8549.39, -187500.02, -187500.02, -187500.02, -187500.02, -187500.02, -187500.02, 0.000, 0.000, 0.000, 02:34:54.479
155, 29917.61, 8518.79, -187500.02, -187500.02, -187500.02, -187500.02, -187500.02, -187500.02, 0.200, 0.994, -0.082, 02:34:54.479
156, 29913.52, 8517.33, -187500.02, -187500.02, -187500.02, -187500.02, -187500.02, -187500.02, 0.000, 0.000, 0.000, 02:34:54.479
157, 29943.31, 8541.74, -187500.02, -187500.02, -187500.02, -187500.02, -187500.02, -187500.02, 0.000, 0.000, 0.000, 02:34:54.479
158, 29937.68, 8530.74, -187500.02, -187500.02, -187500.02, -187500.02, -187500.02, -187500.02, 0.000, 0.000, 0.000, 02:34:54.479
159, 29929.72, 8547.31, -187500.02, -187500.02, -187500.02, -187500.02, -187500.02, -187500.02, 0.000, 0.000, 0.000, 02:34:54.480
160, 29927.44, 8532.80, -187500.02, -187500.02, -187500.02, -187500.02, -187500.02, -187500.02, 0.000, 0.000, 0.000, 02:34:54.480
161, 29977.44, 8571.92, -187500.02, -187500.02, -187500.02, -187500.02, -187500.02, -187500.02, 0.000, 0.000, 0.000, 02:34:54.480
162, 29964.86, 8564.47, -187500.02, -187500.02, -187500.02, -187500.02, -187500.02, -187500.02, 0.000, 0.000, 0.000, 02:34:54.480
163, 29935.42, 8534.21, -187500.02, -187500.02, -187500.02, -187500.02, -187500.02, -187500.02, 0.000, 0.000, 0.000, 02:34:54.480
164, 29914.30, 8499.34, -187500.02, -187500.02, -187500.02, -187500.02, -187500.02, -187500.02, 0.000, 0.000, 0.000, 02:34:54.481
165, 29949.91, 8529.18, -187500.02, -187500.02, -187500.02, -187500.02, -187500.02, -187500.02, 0.202, 0.994, -0.080, 02:34:54.481
166, 29954.04, 8541.85, -187500.02, -187500.02, -187500.02, -187500.02, -187500.02, -187500.02, 0.000, 0.000, 0.000, 02:34:54.481
167, 29930.24, 8530.23, -187500.02, -187500.02, -187500.02, -187500.02, -187500.02, -187500.02, 0.000, 0.000, 0.000, 02:34:54.481
168, 29905.92, 8507.54, -187500.02, -187500.02, -187500.02, -187500.02, -187500.02, -187500.02, 0.000, 0.000, 0.000, 02:34:54.481
169, 29943.92, 8527.53, -187500.02, -187500.02, -187500.02, -187500.02, -187500.02, -187500.02, 0.000, 0.000, 0.000, 02:34:54.481
170, 29944.81, 8532.51, -187500.02, -187500.02, -187500.02, -187500.02, -187500.02, -187500.02, 0.000, 0.000, 0.000, 02:34:54.482
171, 29939.69, 8537.85, -187500.02, -187500.02, -187500.02, -187500.02, -187500.02, -187500.02, 0.000, 0.000, 0.000, 02:34:54.482
172, 29914.32, 8503.50, -187500.02, -187500.02, -187500.02, -187500.02, -187500.02, -187500.02, 0.000, 0.000, 0.000, 02:34:54.482
173, 29925.23, 8501.46, -187500.02, -187500.02, -187500.02, -187500.02, -187500.02, -187500.02, 0.000, 0.000, 0.000, 02:34:54.482
174, 29945.05, 8539.17, -187500.02, -187500.02, -187500.02, -187500.02, -187500.02, -187500.02, 0.000, 0.000, 0.000, 02:34:54.482
175, 29927.22, 8514.25, -187500.02, -187500.02, -187500.02, -187500.02, -187500.02, -187500.02, 0.202, 0.994, -0.088, 02:34:54.482
176, 29898.52, 8502.13, -187500.02, -187500.02, -187500.02, -187500.02, -187500.02, -187500.02, 0.000, 0.000, 0.000, 02:34:54.482
177, 29920.02, 8510.16, -187500.02, -187500.02, -187500.02, -187500.02, -187500.02, -187500.02, 0.000, 0.000, 0.000, 02:34:54.482
178, 29956.88, 8544.65, -187500.02, -187500.02, -187500.02, -187500.02, -187500.02, -187500.02, 0.000, 0.000, 0.000, 02:34:54.483
179, 29942.84, 8532.73, -187500.02, -187500.02, -187500.02, -187500.02, -187500.02, -187500.02, 0.000, 0.000, 0.000, 02:34:54.483
180, 29925.88, 8515.59, -187500.02, -187500.02, -187500.02, -187500.02, -187500.02, -187500.02, 0.000, 0.000, 0.000, 02:34:54.483
181, 29925.50, 8505.35, -187500.02, -187500.02, -187500.02, -187500.02, -187500.02, -187500.02, 0.000, 0.000, 0.000, 02:34:54.483
182, 29957.68, 8533.25, -187500.02, -187500.02, -187500.02, -187500.02, -187500.02, -187500.02, 0.000, 0.000, 0.000, 02:34:54.483
183, 29961.15, 8539.13, -187500.02, -187500.02, -187500.02, -187500.02, -187500.02, -187500.02, 0.000, 0.000, 0.000, 02:34:54.483
184, 29933.14, 8511.83, -187500.02, -187500.02, -187500.02, -187500.02, -187500.02, -187500.02, 0.000, 0.000, 0.000, 02:34:54.483
185, 29915.64, 8480.45, -187500.02, -187500.02, -187500.02, -187500.02, -187500.02, -187500.02, 0.204, 0.994, -0.082, 02:34:54.483
186, 29946.04, 8516.93, -187500.02, -187500.02, -187500.02, -187500.02, -187500.02, -187500.02, 0.000, 0.000, 0.000, 02:34:54.484
187, 29948.79, 8542.52, -187500.02, -187500.02, -187500.02, -187500.02, -187500.02, -187500.02, 0.000, 0.000, 0.000, 02:34:54.484
188, 29923.40, 8525.58, -187500.02, -187500.02, -187500.02, -187500.02, -187500.02, -187500.02, 0.000, 0.000, 0.000, 02:34:54.484
189, 29903.12, 8495.58, -187500.02, -187500.02, -187500.02, -187500.02, -187500.02, -187500.02, 0.000, 0.000, 0.000, 02:34:54.484
190, 29938.44, 8522.34, -187500.02, -187500.02, -187500.02, -187500.02, -187500.02, -187500.02, 0.000, 0.000, 0.000, 02:34:54.484
191, 29946.44, 8527.48, -187500.02, -187500.02, -187500.02, -187500.02, -187500.02, -187500.02, 0.000, 0.000, 0.000, 02:34:54.484
192, 29927.22, 8513.15, -187500.02, -187500.02, -187500.02, -187500.02, -187500.02, -187500.02, 0.000, 0.000, 0.000, 02:34:54.484
193, 29890.79, 8477.73, -187500.02, -187500.02, -187500.02, -187500.02, -187500.02, -187500.02, 0.000, 0.000, 0.000, 02:34:54.484
194, 29918.72, 8516.06, -187500.02, -187500.02, -187500.02, -187500.02, -187500.02, -187500.02, 0.200, 0.996, -0.080, 02:34:54.484
195, 29943.31, 8537.56, -187500.02, -187500.02, -187500.02, -187500.02, -187500.02, -187500.02, 0.000, 0.000, 0.000, 02:34:54.485
196, 29929.63, 8508.84, -187500.02, -187500.02, -187500.02, -187500.02, -187500.02, -187500.02, 0.000, 0.000, 0.000, 02:34:54.485
197, 29894.68, 8458.64, -187500.02, -187500.02, -187500.02, -187500.02, -187500.02, -187500.02, 0.000, 0.000, 0.000, 02:34:54.485
198, 29918.48, 8489.84, -187500.02, -187500.02, -187500.02, -187500.02, -187500.02, -187500.02, 0.000, 0.000, 0.000, 02:34:54.485
199, 29935.62, 8517.38, -187500.02, -187500.02, -187500.02, -187500.02, -187500.02, -187500.02, 0.000, 0.000, 0.000, 02:34:54.485
200, 29930.50, 8513.80, -187500.02, -187500.02, -187500.02, -187500.02, -187500.02, -187500.02, 0.000, 0.000, 0.000, 02:34:54.485
201, 29911.95, 8488.28, -187500.02, -187500.02, -187500.02, -187500.02, -187500.02, -187500.02, 0.000, 0.000, 0.000, 02:34:54.485
202, 29923.13, 8504.64, -187500.02, -187500.02, -187500.02, -187500.02, -187500.02, -187500.02, 0.000, 0.000, 0.000, 02:34:54.485
203, 29948.68, 8527.17, -187500.02, -187500.02, -187500.02, -187500.02, -187500.02, -187500.02, 0.000, 0.000, 0.000, 02:34:54.485
204, 29937.50, 8523.08, -187500.02, -187500.02, -187500.02, -187500.02, -187500.02, -187500.02, 0.200, 0.992, -0.090, 02:34:54.486
205, 29910.79, 8503.03, -187500.02, -187500.02, -187500.02, -187500.02, -187500.02, -187500.02, 0.000, 0.000, 0.000, 02:34:54.486
206, 29901.40, 8485.91, -187500.02, -187500.02, -187500.02, -187500.02, -187500.02, -187500.02, 0.000, 0.000, 0.000, 02:34:54.486
207, 29932.58, 8500.01, -187500.02, -187500.02, -187500.02, -187500.02, -187500.02, -187500.02, 0.000, 0.000, 0.000, 02:34:54.486
208, 29925.68, 8502.87, -187500.02, -187500.02, -187500.02, -187500.02, -187500.02, -187500.02, 0.000, 0.000, 0.000, 02:34:54.486
209, 29913.92, 8501.02, -187500.02, -187500.02, -187500.02, -187500.02, -187500.02, -187500.02, 0.000, 0.000, 0.000, 02:34:54.486
210, 29922.37, 8504.91, -187500.02, -187500.02, -187500.02, -187500.02, -187500.02, -187500.02, 0.000, 0.000, 0.000, 02:34:54.486
211, 29942.69, 8510.61, -187500.02, -187500.02, -187500.02, -187500.02, -187500.02, -187500.02, 0.000, 0.000, 0.000, 02:34:54.486
212, 29932.81, 8508.28, -187500.02, -187500.02, -187500.02, -187500.02, -187500.02, -187500.02, 0.000, 0.000, 0.000, 02:34:54.486
213, 29913.99, 8497.55, -187500.02, -187500.02, -187500.02, -187500.02, -187500.02, -187500.02, 0.000, 0.000, 0.000, 02:34:54.487
214, 29914.30, 8486.04, -187500.02, -187500.02, -187500.02, -187500.02, -187500.02, -187500.02, 0.200, 0.990, -0.092, 02:34:54.487
215, 29948.97, 8512.62, -187500.02, -187500.02, -187500.02, -187500.02, -187500.02, -187500.02, 0.000, 0.000, 0.000, 02:34:54.487
216, 29944.12, 8525.04, -187500.02, -187500.02, -187500.02, -187500.02, -187500.02, -187500.02, 0.000, 0.000, 0.000, 02:34:54.487
217, 29931.58, 8509.91, -187500.02, -187500.02, -187500.02, -187500.02, -187500.02, -187500.02, 0.000, 0.000, 0.000, 02:34:54.487
218, 29909.85, 8486.31, -187500.02, -187500.02, -187500.02, -187500.02, -187500.02, -187500.02, 0.000, 0.000, 0.000, 02:34:54.487
219, 29928.54, 8491.85, -187500.02, -187500.02, -187500.02, -187500.02, -187500.02, -187500.02, 0.000, 0.000, 0.000, 02:34:54.487
220, 29938.28, 8520.44, -187500.02, -187500.02, -187500.02, -187500.02, -187500.02, -187500.02, 0.000, 0.000, 0.000, 02:34:54.487
221, 29929.28, 8503.45, -187500.02, -187500.02, -187500.02, -187500.02, -187500.02, -187500.02, 0.000, 0.000, 0.000, 02:34:54.487
222, 29908.06, 8485.26, -187500.02, -187500.02, -187500.02, -187500.02, -187500.02, -187500.02, 0.000, 0.000, 0.000, 02:34:54.488
223, 29929.16, 8501.06, -187500.02, -187500.02, -187500.02, -187500.02, -187500.02, -187500.02, 0.000, 0.000, 0.000, 02:34:54.488
224, 29946.38, 8522.63, -187500.02, -187500.02, -187500.02, -187500.02, -187500.02, -187500.02, 0.194, 0.992, -0.090, 02:34:54.488
225, 29932.23, 8504.86, -187500.02, -187500.02, -187500.02, -187500.02, -187500.02, -187500.02, 0.000, 0.000, 0.000, 02:34:54.952
226, 29914.88, 8483.83, -187500.02, -187500.02, -187500.02, -187500.02, -187500.02, -187500.02, 0.000, 0.000, 0.000, 02:34:54.952
227, 29917.27, 8488.50, -187500.02, -187500.02, -187500.02, -187500.02, -187500.02, -187500.02, 0.000, 0.000, 0.000, 02:34:54.952
228, 29944.34, 8502.56, -187500.02, -187500.02, -187500.02, -187500.02, -187500.02, -187500.02, 0.000, 0.000, 0.000, 02:34:54.952
229, 29951.40, 8533.87, -187500.02, -187500.02, -187500.02, -187500.02, -187500.02, -187500.02, 0.000, 0.000, 0.000, 02:34:54.952
230, 29924.65, 8506.47, -187500.02, -187500.02, -187500.02, -187500.02, -187500.02, -187500.02, 0.000, 0.000, 0.000, 02:34:54.952
231, 29913.65, 8490.51, -187500.02, -187500.02, -187500.02, -187500.02, -187500.02, -187500.02, 0.000, 0.000, 0.000, 02:34:54.953
232, 29951.74, 8507.16, -187500.02, -187500.02, -187500.02, -187500.02, -187500.02, -187500.02, 0.000, 0.000, 0.000, 02:34:54.953
233, 29947.11, 8504.53, -187500.02, -187500.02, -187500.02, -187500.02, -187500.02, -187500.02, 0.000, 0.000, 0.000, 02:34:54.953
234, 29924.09, 8489.95, -187500.02, -187500.02, -187500.02, -187500.02, -187500.02, -187500.02, 0.206, 0.988, -0.086, 02:34:54.953
235, 29909.27, 8472.94, -187500.02, -187500.02, -187500.02, -187500.02, -187500.02, -187500.02, 0.000, 0.000, 0.000, 02:34:54.953
236, 29936.79, 8492.50, -187500.02, -187500.02, -187500.02, -187500.02, -187500.02, -187500.02, 0.000, 0.000, 0.000, 02:34:54.953
237, 29937.26, 8494.91, -187500.02, -187500.02, -187500.02, -187500.02, -187500.02, -187500.02, 0.000, 0.000, 0.000, 02:34:54.953
238, 29917.21, 8474.04, -187500.02, -187500.02, -187500.02, -187500.02, -187500.02, -187500.02, 0.000, 0.000, 0.000, 02:34:54.954
239, 29895.10, 8444.62, -187500.02, -187500.02, -187500.02, -187500.02, -187500.02, -187500.02, 0.000, 0.000, 0.000, 02:34:54.954
240, 29913.65, 8473.03, -187500.02, -187500.02, -187500.02, -187500.02, -187500.02, -187500.02, 0.000, 0.000, 0.000, 02:34:54.954
241, 29943.49, 8513.09, -187500.02, -187500.02, -187500.02, -187500.02, -187500.02, -187500.02, 0.000, 0.000, 0.000, 02:34:54.954
242, 29948.41, 8522.81, -187500.02, -187500.02, -187500.02, -187500.02, -187500.02, -187500.02, 0.000, 0.000, 0.000, 02:34:54.954
243, 29925.27, 8501.44, -187500.02, -187500.02, -187500.02, -187500.02, -187500.02, -187500.02, 0.000, 0.000, 0.000, 02:34:54.954
244, 29934.84, 8497.31, -187500.02, -187500.02, -187500.02, -187500.02, -187500.02, -187500.02, 0.206, 0.992, -0.082, 02:34:54.954
245, 29954.44, 8520.06, -187500.02, -187500.02, -187500.02, -187500.02, -187500.02, -187500.02, 0.000, 0.000, 0.000, 02:34:54.954
246, 29944.03, 8513.22, -187500.02, -187500.02, -187500.02, -187500.02, -187500.02, -187500.02, 0.000, 0.000, 0.000, 02:34:54.955
247, 29915.98, 8485.97, -187500.02, -187500.02, -187500.02, -187500.02, -187500.02, -187500.02, 0.000, 0.000, 0.000, 02:34:54.955
248, 29923.42, 8473.30, -187500.02, -187500.02, -187500.02, -187500.02, -187500.02, -187500.02, 0.000, 0.000, 0.000, 02:34:54.955
249, 29954.11, 8495.38, -187500.02, -187500.02, -187500.02, -187500.02, -187500.02, -187500.02, 0.000, 0.000, 0.000, 02:34:54.955
250, 29941.01, 8497.04, -187500.02, -187500.02, -187500.02, -187500.02, -187500.02, -187500.02, 0.000, 0.000, 0.000, 02:34:54.955
251, 29903.71, 8460.29, -187500.02, -187500.02, -187500.02, -187500.02, -187500.02, -187500.02, 0.000, 0.000, 0.000, 02:34:54.955
252, 29909.67, 8466.15, -187500.02, -187500.02, -187500.02, -187500.02, -187500.02, -187500.02, 0.000, 0.000, 0.000, 02:34:54.955
253, 29952.52, 8515.19, -187500.02, -187500.02, -187500.02, -187500.02, -187500.02, -187500.02, 0.000, 0.000, 0.000, 02:34:54.955
254, 29945.48, 8511.83, -187500.02, -187500.02, -187500.02, -187500.02, -187500.02, -187500.02, 0.200, 0.990, -0.084, 02:34:54.956
255, 29912.85, 8479.33, -187500.02, -187500.02, -187500.02, -187500.02, -187500.02, -187500.02, 0.000, 0.000, 0.000, 02:34:54.956
0, 29908.49, 8460.69, -187500.02, -187500.02, -187500.02, -187500.02, -187500.02, -187500.02, 0.000, 0.000, 0.000, 02:34:54.956
1, 29938.57, 8490.82, -187500.02, -187500.02, -187500.02, -187500.02, -187500.02, -187500.02, 0.000, 0.000, 0.000, 02:34:54.956
2, 29931.31, 8495.54, -187500.02, -187500.02, -187500.02, -187500.02, -187500.02, -187500.02, 0.000, 0.000, 0.000, 02:34:54.956
3, 29911.13, 8488.39, -187500.02, -187500.02, -187500.02, -187500.02, -187500.02, -187500.02, 0.000, 0.000, 0.000, 02:34:54.956
4, 29904.02, 8465.57, -187500.02, -187500.02, -187500.02, -187500.02, -187500.02, -187500.02, 0.000, 0.000, 0.000, 02:34:54.956
5, 29933.19, 8478.11, -187500.02, -187500.02, -187500.02, -187500.02, -187500.02, -187500.02, 0.000, 0.000, 0.000, 02:34:54.956
6, 29938.57, 8483.11, -187500.02, -187500.02, -187500.02, -187500.02, -187500.02, -187500.02, 0.000, 0.000, 0.000, 02:34:54.957
7, 29941.64, 8490.22, -187500.02, -187500.02, -187500.02, -187500.02, -187500.02, -187500.02, 0.198, 0.998, -0.086, 02:34:54.957
8, 29926.73, 8474.69, -187500.02, -187500.02, -187500.02, -187500.02, -187500.02, -187500.02, 0.000, 0.000, 0.000, 02:34:54.957
9, 29953.55, 8490.29, -187500.02, -187500.02, -187500.02, -187500.02, -187500.02, -187500.02, 0.000, 0.000, 0.000, 02:34:54.957
10, 29960.46, 8497.75, -187500.02, -187500.02, -187500.02, -187500.02, -187500.02, -187500.02, 0.000, 0.000, 0.000, 02:34:54.957
11, 29953.75, 8485.15, -187500.02, -187500.02, -187500.02, -187500.02, -187500.02, -187500.02, 0.000, 0.000, 0.000, 02:34:54.957
12, 29908.22, 8434.34, -187500.02, -187500.02, -187500.02, -187500.02, -187500.02, -187500.02, 0.000, 0.000, 0.000, 02:34:54.957
13, 29928.43, 8463.11, -187500.02, -187500.02, -187500.02, -187500.02, -187500.02, -187500.02, 0.000, 0.000, 0.000, 02:34:54.958
14, 29963.41, 8514.14, -187500.02, -187500.02, -187500.02, -187500.02, -187500.02, -187500.02, 0.000, 0.000, 0.000, 02:34:54.958
15, 29955.72, 8510.52, -187500.02, -187500.02, -187500.02, -187500.02, -187500.02, -187500.02, 0.000, 0.000, 0.000, 02:34:54.958
16, 29912.51, 8467.94, -187500.02, -187500.02, -187500.02, -187500.02, -187500.02, -187500.02, 0.000, 0.000, 0.000, 02:34:54.958
17, 29915.93, 8461.28, -187500.02, -187500.02, -187500.02, -187500.02, -187500.02, -187500.02, 0.198, 0.996, -0.088, 02:34:54.958
18, 29947.43, 8496.66, -187500.02, -187500.02, -187500.02, -187500.02, -187500.02, -187500.02, 0.000, 0.000, 0.000, 02:34:54.958
19, 29934.46, 8482.40, -187500.02, -187500.02, -187500.02, -187500.02, -187500.02, -187500.02, 0.000, 0.000, 0.000, 02:34:54.958
20, 29916.22, 8458.46, -187500.02, -187500.02, -187500.02, -187500.02, -187500.02, -187500.02, 0.000, 0.000, 0.000, 02:34:54.958
21, 29918.46, 8460.27, -187500.02, -187500.02, -187500.02, -187500.02, -187500.02, -187500.02, 0.000, 0.000, 0.000, 02:34:54.958
22, 29942.20, 8492.90, -187500.02, -187500.02, -187500.02, -187500.02, -187500.02, -187500.02, 0.000, 0.000, 0.000, 02:34:54.959
23, 29958.53, 8487.45, -187500.02, -187500.02, -187500.02, -187500.02, -187500.02, -187500.02, 0.000, 0.000, 0.000, 02:34:54.959
24, 29938.91, 8456.80, -187500.02, -187500.02, -187500.02, -187500.02, -187500.02, -187500.02, 0.000, 0.000, 0.000, 02:34:54.959
25, 29925.30, 8456.18, -187500.02, -187500.02, -187500.02, -187500.02, -187500.02, -187500.02, 0.000, 0.000, 0.000, 02:34:54.959
26, 29962.04, 8519.66, -187500.02, -187500.02, -187500.02, -187500.02, -187500.02, -187500.02, 0.000, 0.000, 0.000, 02:34:54.959
27, 29960.12, 8519.03, -187500.02, -187500.02, -187500.02, -187500.02, -187500.02, -187500.02, 0.206, 0.996, -0.092, 02:34:54.959
28, 29939.33, 8501.91, -187500.02, -187500.02, -187500.02, -187500.02, -187500.02, -187500.02, 0.000, 0.000, 0.000, 02:34:54.959
29, 29922.70, 8490.56, -187500.02, -187500.02, -187500.02, -187500.02, -187500.02, -187500.02, 0.000, 0.000, 0.000, 02:34:54.959
30, 29962.36, 8522.07, -187500.02, -187500.02, -187500.02, -187500.02, -187500.02, -187500.02, 0.000, 0.000, 0.000, 02:34:54.960
31, 29963.83, 8536.11, -187500.02, -187500.02, -187500.02, -187500.02, -187500.02, -187500.02, 0.000, 0.000, 0.000, 02:34:54.960
32, 29948.32, 8525.76, -187500.02, -187500.02, -187500.02, -187500.02, -187500.02, -187500.02, 0.000, 0.000, 0.000, 02:34:54.960
33, 29922.90, 8502.78, -187500.02, -187500.02, -187500.02, -187500.02, -187500.02, -187500.02, 0.000, 0.000, 0.000, 02:34:54.960
34, 29952.74, 8523.59, -187500.02, -187500.02, -187500.02, -187500.02, -187500.02, -187500.02, 0.000, 0.000, 0.000, 02:34:54.960
35, 29973.87, 8546.30, -187500.02, -187500.02, -187500.02, -187500.02, -187500.02, -187500.02, 0.000, 0.000, 0.000, 02:34:54.960
36, 29967.97, 8547.26, -187500.02, -187500.02, -187500.02, -187500.02, -187500.02, -187500.02, 0.000, 0.000, 0.000, 02:34:54.960
37, 29935.47, 8512.08, -187500.02, -187500.02, -187500.02, -187500.02, -187500.02, -187500.02, 0.204, 0.996, -0.092, 02:34:54.961
38, 29950.22, 8522.54, -187500.02, -187500.02, -187500.02, -187500.02, -187500.02, -187500.02, 0.000, 0.000, 0.000, 02:34:54.961
39, 29976.79, 8571.02, -187500.02, -187500.02, -187500.02, -187500.02, -187500.02, -187500.02, 0.000, 0.000, 0.000, 02:34:54.961
40, 29963.83, 8558.10, -187500.02, -187500.02, -187500.02, -187500.02, -187500.02, -187500.02, 0.000, 0.000, 0.000, 02:34:54.961
41, 29935.65, 8533.07, -187500.02, -187500.02, -187500.02, -187500.02, -187500.02, -187500.02, 0.000, 0.000, 0.000, 02:34:54.961
42, 29945.73, 8533.63, -187500.02, -187500.02, -187500.02, -187500.02, -187500.02, -187500.02, 0.000, 0.000, 0.000, 02:34:54.961
43, 29967.32, 8556.56, -187500.02, -187500.02, -187500.02, -187500.02, -187500.02, -187500.02, 0.000, 0.000, 0.000, 02:34:54.961
44, 29961.13, 8542.88, -187500.02, -187500.02, -187500.02, -187500.02, -187500.02, -187500.02, 0.000, 0.000, 0.000, 02:34:54.962
45, 29926.28, 8518.05, -187500.02, -187500.02, -187500.02, -187500.02, -187500.02, -187500.02, 0.000, 0.000, 0.000, 02:34:54.962
46, 29925.81, 8527.39, -187500.02, -187500.02, -187500.02, -187500.02, -187500.02, -187500.02, 0.000, 0.000, 0.000, 02:34:54.962
47, 29961.60, 8566.44, -187500.02, -187500.02, -187500.02, -187500.02, -187500.02, -187500.02, 0.202, 0.992, -0.088, 02:34:54.962
48, 29953.01, 8542.10, -187500.02, -187500.02, -187500.02, -187500.02, -187500.02, -187500.02, 0.000, 0.000, 0.000, 02:34:54.962
49, 29934.39, 8530.79, -187500.02, -187500.02, -187500.02, -187500.02, -187500.02, -187500.02, 0.000, 0.000, 0.000, 02:34:54.962
50, 29930.82, 8538.59, -187500.02, -187500.02, -187500.02, -187500.02, -187500.02, -187500.02, 0.000, 0.000, 0.000, 02:34:54.963
51, 29957.46, 8548.60, -187500.02, -187500.02, -187500.02, -187500.02, -187500.02, -187500.02, 0.000, 0.000, 0.000, 02:34:54.963
52, 29972.84, 8568.83, -187500.02, -187500.02, -187500.02, -187500.02, -187500.02, -187500.02, 0.000, 0.000, 0.000, 02:34:54.963
53, 29953.44, 8541.70, -187500.02, -187500.02, -187500.02, -187500.02, -187500.02, -187500.02, 0.000, 0.000, 0.000, 02:34:54.965
54, 29923.31, 8524.24, -187500.02, -187500.02, -187500.02, -187500.02, -187500.02, -187500.02, 0.000, 0.000, 0.000, 02:34:54.965
55, 29961.64, 8575.09, -187500.02, -187500.02, -187500.02, -187500.02, -187500.02, -187500.02, 0.000, 0.000, 0.000, 02:34:54.966
56, 29974.38, 8586.60, -187500.02, -187500.02, -187500.02, -187500.02, -187500.02, -187500.02, 0.000, 0.000, 0.000, 02:34:54.966
57, 29944.50, 8558.30, -187500.02, -187500.02, -187500.02, -187500.02, -187500.02, -187500.02, 0.204, 0.996, -0.092, 02:34:54.966
58, 29915.30, 8529.31, -187500.02, -187500.02, -187500.02, -187500.02, -187500.02, -187500.02, 0.000, 0.000, 0.000, 02:34:54.966
59, 29942.08, 8559.24, -187500.02, -187500.02, -187500.02, -187500.02, -187500.02, -187500.02, 0.000, 0.000, 0.000, 02:34:54.966
60, 29957.35, 8573.55, -187500.02, -187500.02, -187500.02, -187500.02, -187500.02, -187500.02, 0.000, 0.000, 0.000, 02:34:54.966
61, 29944.41, 8558.17, -187500.02, -187500.02, -187500.02, -187500.02, -187500.02, -187500.02, 0.000, 0.000, 0.000, 02:34:54.966
62, 29922.75, 8531.01, -187500.02, -187500.02, -187500.02, -187500.02, -187500.02, -187500.02, 0.000, 0.000, 0.000, 02:34:54.967
63, 29935.78, 8541.41, -187500.02, -187500.02, -187500.02, -187500.02, -187500.02, -187500.02, 0.000, 0.000, 0.000, 02:34:54.967
64, 29949.39, 8560.79, -187500.02, -187500.02, -187500.02, -187500.02, -187500.02, -187500.02, 0.000, 0.000, 0.000, 02:34:54.967
65, 29950.22, 8566.19, -187500.02, -187500.02, -187500.02, -187500.02, -187500.02, -187500.02, 0.000, 0.000, 0.000, 02:34:54.967
66, 29914.75, 8534.54, -187500.02, -187500.02, -187500.02, -187500.02, -187500.02, -187500.02, 0.198, 0.992, -0.088, 02:34:54.967
67, 29929.30, 8554.08, -187500.02, -187500.02, -187500.02, -187500.02, -187500.02, -187500.02, 0.000, 0.000, 0.000, 02:34:54.967
68, 29953.68, 8569.35, -187500.02, -187500.02, -187500.02, -187500.02, -187500.02, -187500.02, 0.000, 0.000, 0.000, 02:34:54.967
69, 29948.34, 8574.93, -187500.02, -187500.02, -187500.02, -187500.02, -187500.02, -187500.02, 0.000, 0.000, 0.000, 02:34:54.967
70, 29923.35, 8554.82, -187500.02, -187500.02, -187500.02, -187500.02, -187500.02, -187500.02, 0.000, 0.000, 0.000, 02:34:54.968
71, 29923.89, 8538.28, -187500.02, -187500.02, -187500.02, -187500.02, -187500.02, -187500.02, 0.000, 0.000, 0.000, 02:34:54.968
72, 29953.82, 8564.56, -187500.02, -187500.02, -187500.02, -187500.02, -187500.02, -187500.02, 0.000, 0.000, 0.000, 02:34:54.968
73, 29951.40, 8579.18, -187500.02, -187500.02, -187500.02, -187500.02, -187500.02, -187500.02, 0.000, 0.000, 0.000, 02:34:54.968
74, 29930.53, 8542.72, -187500.02, -187500.02, -187500.02, -187500.02, -187500.02, -187500.02, 0.000, 0.000, 0.000, 02:34:54.968
75, 29933.37, 8531.95, -187500.02, -187500.02, -187500.02, -187500.02, -187500.02, -187500.02, 0.000, 0.000, 0.000, 02:34:54.968
76, 29980.19, 8584.43, -187500.02, -187500.02, -187500.02, -187500.02, -187500.02, -187500.02, 0.202, 0.992, -0.090, 02:34:54.968
77, 29986.16, 8615.32, -187500.02, -187500.02, -187500.02, -187500.02, -187500.02, -187500.02, 0.000, 0.000, 0.000, 02:34:54.968
78, 29951.07, 8582.22, -187500.02, -187500.02, -187500.02, -187500.02, -187500.02, -187500.02, 0.000, 0.000, 0.000, 02:34:54.969
79, 29919.40, 8536.69, -187500.02, -187500.02, -187500.02, -187500.02, -187500.02, -187500.02, 0.000, 0.000, 0.000, 02:34:54.969
80, 29940.41, 8551.13, -187500.02, -187500.02, -187500.02, -187500.02, -187500.02, -187500.02, 0.000, 0.000, 0.000, 02:34:54.969
81, 29938.95, 8561.41, -187500.02, -187500.02, -187500.02, -187500.02, -187500.02, -187500.02, 0.000, 0.000, 0.000, 02:34:54.969
82, 29925.59, 8550.68, -187500.02, -187500.02, -187500.02, -187500.02, -187500.02, -187500.02, 0.000, 0.000, 0.000, 02:34:54.969
83, 29912.40, 8534.83, -187500.02, -187500.02, -187500.02, -187500.02, -187500.02, -187500.02, 0.000, 0.000, 0.000, 02:34:54.969
84, 29942.20, 8544.13, -187500.02, -187500.02, -187500.02, -187500.02, -187500.02, -187500.02, 0.000, 0.000, 0.000, 02:34:54.969
85, 29949.68, 8557.34, -187500.02, -187500.02, -187500.02, -187500.02, -187500.02, -187500.02, 0.000, 0.000, 0.000, 02:34:54.969
86, 29948.61, 8567.11, -187500.02, -187500.02, -187500.02, -187500.02, -187500.02, -187500.02, 0.204, 0.988, -0.082, 02:34:54.970
87, 29912.09, 8523.64, -187500.02, -187500.02, -187500.02, -187500.02, -187500.02, -187500.02, 0.000, 0.000, 0.000, 02:34:54.970
88, 29926.95, 8533.61, -187500.02, -187500.02, -187500.02, -187500.02, -187500.02, -187500.02, 0.000, 0.000, 0.000, 02:34:54.970
89, 29952.32, 8564.88, -187500.02, -187500.02, -187500.02, -187500.02, -187500.02, -187500.02, 0.000, 0.000, 0.000, 02:34:54.970
90, 29941.81, 8548.58, -187500.02, -187500.02, -187500.02, -187500.02, -187500.02, -187500.02, 0.000, 0.000, 0.000, 02:34:55.432
91, 29914.77, 8525.60, -187500.02, -187500.02, -187500.02, -187500.02, -187500.02, -187500.02, 0.000, 0.000, 0.000, 02:34:55.432
92, 29919.84, 8520.28, -187500.02, -187500.02, -187500.02, -187500.02, -187500.02, -187500.02, 0.000, 0.000, 0.000, 02:34:55.432
93, 29955.38, 8543.48, -187500.02, -187500.02, -187500.02, -187500.02, -187500.02, -187500.02, 0.000, 0.000, 0.000, 02:34:55.433
94, 29951.18, 8549.18, -187500.02, -187500.02, -187500.02, -187500.02, -187500.02, -187500.02, 0.000, 0.000, 0.000, 02:34:55.433
95, 29921.29, 8532.08, -187500.02, -187500.02, -187500.02, -187500.02, -187500.02, -187500.02, 0.000, 0.000, 0.000, 02:34:55.433
96, 29911.84, 8529.40, -187500.02, -187500.02, -187500.02, -187500.02, -187500.02, -187500.02, 0.196, 0.998, -0.088, 02:34:55.433
97, 29948.32, 8554.71, -187500.02, -187500.02, -187500.02, -187500.02, -187500.02, -187500.02, 0.000, 0.000, 0.000, 02:34:55.433
98, 29942.75, 8566.93, -187500.02, -187500.02, -187500.02, -187500.02, -187500.02, -187500.02, 0.000, 0.000, 0.000, 02:34:55.433
99, 29921.25, 8559.85, -187500.02, -187500.02, -187500.02, -187500.02, -187500.02, -187500.02, 0.000, 0.000, 0.000, 02:34:55.433
100, 29899.35, 8525.54, -187500.02, -187500.02, -187500.02, -187500.02, -187500.02, -187500.02, 0.000, 0.000, 0.000, 02:34:55.434
101, 29935.94, 8546.35, -187500.02, -187500.02, -187500.02, -187500.02, -187500.02, -187500.02, 0.000, 0.000, 0.000, 02:34:55.434
102, 29939.33, 8547.08, -187500.02, -187500.02, -187500.02, -187500.02, -187500.02, -187500.02, 0.000, 0.000, 0.000, 02:34:55.434
103, 29925.83, 8535.08, -187500.02, -187500.02, -187500.02, -187500.02, -187500.02, -187500.02, 0.000, 0.000, 0.000, 02:34:55.434
104, 29906.16, 8533.43, -187500.02, -187500.02, -187500.02, -187500.02, -187500.02, -187500.02, 0.000, 0.000, 0.000, 02:34:55.434
105, 29938.93, 8557.05, -187500.02, -187500.02, -187500.02, -187500.02, -187500.02, -187500.02, 0.000, 0.000, 0.000, 02:34:55.434
106, 29947.00, 8557.79, -187500.02, -187500.02, -187500.02, -187500.02, -187500.02, -187500.02, 0.194, 0.996, -0.082, 02:34:55.434
107, 29910.10, 8531.46, -187500.02, -187500.02, -187500.02, -187500.02, -187500.02, -187500.02, 0.000, 0.000, 0.000, 02:34:55.435
108, 29889.78, 8517.49, -187500.02, -187500.02, -187500.02, -187500.02, -187500.02, -187500.02, 0.000, 0.000, 0.000, 02:34:55.435
109, 29917.96, 8523.93, -187500.02, -187500.02, -187500.02, -187500.02, -187500.02, -187500.02, 0.000, 0.000, 0.000, 02:34:55.435
110, 29935.24, 8545.47, -187500.02, -187500.02, -187500.02, -187500.02, -187500.02, -187500.02, 0.000, 0.000, 0.000, 02:34:55.435
111, 29930.93, 8561.43, -187500.02, -187500.02, -187500.02, -187500.02, -187500.02, -187500.02, 0.000, 0.000, 0.000, 02:34:55.435
112, 29914.03, 8535.15, -187500.02, -187500.02, -187500.02, -187500.02, -187500.02, -187500.02, 0.000, 0.000, 0.000, 02:34:55.435
113, 29924.78, 8534.70, -187500.02, -187500.02, -187500.02, -187500.02, -187500.02, -187500.02, 0.000, 0.000, 0.000, 02:34:55.435
114, 29947.87, 8563.18, -187500.02, -187500.02, -187500.02, -187500.02, -187500.02, -187500.02, 0.000, 0.000, 0.000, 02:34:55.435
115, 29934.48, 8548.00, -187500.02, -187500.02, -187500.02, -187500.02, -187500.02, -187500.02, 0.000, 0.000, 0.000, 02:34:55.435
116, 29907.35, 8508.35, -187500.02, -187500.02, -187500.02, -187500.02, -187500.02, -187500.02, 0.202, 0.988, -0.084, 02:34:55.436
117, 29913.74, 8518.65, -187500.02, -187500.02, -187500.02, -187500.02, -187500.02, -187500.02, 0.000, 0.000, 0.000, 02:34:55.436
118, 29940.52, 8551.26, -187500.02, -187500.02, -187500.02, -187500.02, -187500.02, -187500.02, 0.000, 0.000, 0.000, 02:34:55.436
119, 29935.80, 8550.95, -187500.02, -187500.02, -187500.02, -187500.02, -187500.02, -187500.02, 0.000, 0.000, 0.000, 02:34:55.436
120, 29904.22, 8518.88, -187500.02, -187500.02, -187500.02, -187500.02, -187500.02, -187500.02, 0.000, 0.000, 0.000, 02:34:55.436
121, 29897.11, 8510.85, -187500.02, -187500.02, -187500.02, -187500.02, -187500.02, -187500.02, 0.000, 0.000, 0.000, 02:34:55.436
122, 29932.54, 8538.19, -187500.02, -187500.02, -187500.02, -187500.02, -187500.02, -187500.02, 0.000, 0.000, 0.000, 02:34:55.436
123, 29933.79, 8545.67, -187500.02, -187500.02, -187500.02, -187500.02, -187500.02, -187500.02, 0.000, 0.000, 0.000, 02:34:55.436
124, 29913.58, 8543.17, -187500.02, -187500.02, -187500.02, -187500.02, -187500.02, -187500.02, 0.000, 0.000, 0.000, 02:34:55.437
125, 29899.95, 8518.25, -187500.02, -187500.02, -187500.02, -187500.02, -187500.02, -187500.02, 0.204, 0.996, -0.086, 02:34:55.437
126, 29923.91, 8534.66, -187500.02, -187500.02, -187500.02, -187500.02, -187500.02, -187500.02, 0.000, 0.000, 0.000, 02:34:55.437
127, 29926.95, 8540.40, -187500.02, -187500.02, -187500.02, -187500.02, -187500.02, -187500.02, 0.000, 0.000, 0.000, 02:34:55.437
128, 29910.05, 8515.88, -187500.02, -187500.02, -187500.02, -187500.02, -187500.02, -187500.02, 0.000, 0.000, 0.000, 02:34:55.437
129, 29886.63, 8488.52, -187500.02, -187500.02, -187500.02, -187500.02, -187500.02, -187500.02, 0.000, 0.000, 0.000, 02:34:55.437
130, 29914.88, 8537.67, -187500.02, -187500.02, -187500.02, -187500.02, -187500.02, -187500.02, 0.000, 0.000, 0.000, 02:34:55.437
131, 29929.61, 8540.78, -187500.02, -187500.02, -187500.02, -187500.02, -187500.02, -187500.02, 0.000, 0.000, 0.000, 02:34:55.437
132, 29924.40, 8540.80, -187500.02, -187500.02, -187500.02, -187500.02, -187500.02, -187500.02, 0.000, 0.000, 0.000, 02:34:55.438
133, 29898.68, 8508.17, -187500.02, -187500.02, -187500.02, -187500.02, -187500.02, -187500.02, 0.000, 0.000, 0.000, 02:34:55.438
134, 29922.46, 8523.30, -187500.02, -187500.02, -187500.02, -187500.02, -187500.02, -187500.02, 0.000, 0.000, 0.000, 02:34:55.438
135, 29938.28, 8554.82, -187500.02, -187500.02, -187500.02, -187500.02, -187500.02, -187500.02, 0.206, 0.996, -0.082, 02:34:55.438
136, 29927.04, 8543.13, -187500.02, -187500.02, -187500.02, -187500.02, -187500.02, -187500.02, 0.000, 0.000, 0.000, 02:34:55.438
137, 29891.34, 8505.08, -187500.02, -187500.02, -187500.02, -187500.02, -187500.02, -187500.02, 0.000, 0.000, 0.000, 02:34:55.438
138, 29904.64, 8506.56, -187500.02, -187500.02, -187500.02, -187500.02, -187500.02, -187500.02, 0.000, 0.000, 0.000, 02:34:55.438
139, 29945.73, 8541.79, -187500.02, -187500.02, -187500.02, -187500.02, -187500.02, -187500.02, 0.000, 0.000, 0.000, 02:34:55.438
140, 29939.49, 8552.89, -187500.02, -187500.02, -187500.02, -187500.02, -187500.02, -187500.02, 0.000, 0.000, 0.000, 02:34:55.439
141, 29906.54, 8518.65, -187500.02, -187500.02, -187500.02, -187500.02, -187500.02, -187500.02, 0.000, 0.000, 0.000, 02:34:55.439
142, 29897.71, 8498.87, -187500.02, -187500.02, -187500.02, -187500.02, -187500.02, -187500.02, 0.000, 0.000, 0.000, 02:34:55.439
143, 29942.73, 8549.61, -187500.02, -187500.02, -187500.02, -187500.02, -187500.02, -187500.02, 0.000, 0.000, 0.000, 02:34:55.439
144, 29930.62, 8538.25, -187500.02, -187500.02, -187500.02, -187500.02, -187500.02, -187500.02, 0.000, 0.000, 0.000, 02:34:55.439
145, 29910.23, 8520.78, -187500.02, -187500.02, -187500.02, -187500.02, -187500.02, -187500.02, 0.208, 0.994, -0.082, 02:34:55.439
146, 29896.98, 8497.37, -187500.02, -187500.02, -187500.02, -187500.02, -187500.02, -187500.02, 0.000, 0.000, 0.000, 02:34:55.439
147, 29924.67, 8516.98, -187500.02, -187500.02, -187500.02, -187500.02, -187500.02, -187500.02, 0.000, 0.000, 0.000, 02:34:55.439
148, 29939.09, 8536.00, -187500.02, -187500.02, -187500.02, -187500.02, -187500.02, -187500.02, 0.000, 0.000, 0.000, 02:34:55.440
149, 29911.60, 8508.73, -187500.02, -187500.02, -187500.02, -187500.02, -187500.02, -187500.02, 0.000, 0.000, 0.000, 02:34:55.440
150, 29892.08, 8486.08, -187500.02, -187500.02, -187500.02, -187500.02, -187500.02, -187500.02, 0.000, 0.000, 0.000, 02:34:55.440
151, 29931.44, 8528.84, -187500.02, -187500.02, -187500.02, -187500.02, -187500.02, -187500.02, 0.000, 0.000, 0.000, 02:34:55.440
152, 29935.31, 8551.96, -187500.02, -187500.02, -187500.02, -187500.02, -187500.02, -187500.02, 0.000, 0.000, 0.000, 02:34:55.440
153, 29934.04, 8545.07, -187500.02, -187500.02, -187500.02, -187500.02, -187500.02, -187500.02, 0.000, 0.000, 0.000, 02:34:55.440
154, 29912.51, 8503.81, -187500.02, -187500.02, -187500.02, -187500.02, -187500.02, -187500.02, 0.000, 0.000, 0.000, 02:34:55.440
155, 29931.22, 8515.54, -187500.02, -187500.02, -187500.02, -187500.02, -187500.02, -187500.02, 0.208, 0.994, -0.084, 02:34:55.440
156, 29939.71, 8526.16, -187500.02, -187500.02, -187500.02, -187500.02, -187500.02, -187500.02, 0.000, 0.000, 0.000, 02:34:55.440
157, 29937.10, 8548.07, -187500.02, -187500.02, -187500.02, -187500.02, -187500.02, -187500.02, 0.000, 0.000, 0.000, 02:34:55.441
158, 29905.20, 8506.56, -187500.02, -187500.02, -187500.02, -187500.02, -187500.02, -187500.02, 0.000, 0.000, 0.000, 02:34:55.441
159, 29915.73, 8504.35, -187500.02, -187500.02, -187500.02, -187500.02, -187500.02, -187500.02, 0.000, 0.000, 0.000, 02:34:55.441
160, 29935.42, 8523.35, -187500.02, -187500.02, -187500.02, -187500.02, -187500.02, -187500.02, 0.000, 0.000, 0.000, 02:34:55.441
161, 29930.48, 8523.12, -187500.02, -187500.02, -187500.02, -187500.02, -187500.02, -187500.02, 0.000, 0.000, 0.000, 02:34:55.441
162, 29914.37, 8518.88, -187500.02, -187500.02, -187500.02, -187500.02, -187500.02, -187500.02, 0.000, 0.000, 0.000, 02:34:55.441
163, 29925.88, 8529.47, -187500.02, -187500.02, -187500.02, -187500.02, -187500.02, -187500.02, 0.000, 0.000, 0.000, 02:34:55.441
164, 29947.51, 8537.54, -187500.02, -187500.02, -187500.02, -187500.02, -187500.02, -187500.02, 0.000, 0.000, 0.000, 02:34:55.441
165, 29941.52, 8543.42, -187500.02, -187500.02, -187500.02, -187500.02, -187500.02, -187500.02, 0.200, 0.994, -0.088, 02:34:55.442
166, 29910.57, 8505.08, -187500.02, -187500.02, -187500.02, -187500.02, -187500.02, -187500.02, 0.000, 0.000, 0.000, 02:34:55.442
167, 29889.65, 8482.96, -187500.02, -187500.02, -187500.02, -187500.02, -187500.02, -187500.02, 0.000, 0.000, 0.000, 02:34:55.442
168, 29933.14, 8529.87, -187500.02, -187500.02, -187500.02, -187500.02, -187500.02, -187500.02, 0.000, 0.000, 0.000, 02:34:55.442
169, 29945.23, 8525.22, -187500.02, -187500.02, -187500.02, -187500.02, -187500.02, -187500.02, 0.000, 0.000, 0.000, 02:34:55.442
170, 29909.76, 8482.64, -187500.02, -187500.02, -187500.02, -187500.02, -187500.02, -187500.02, 0.000, 0.000, 0.000, 02:34:55.442
171, 29893.33, 8487.16, -187500.02, -187500.02, -187500.02, -187500.02, -187500.02, -187500.02, 0.000, 0.000, 0.000, 02:34:55.442
172, 29920.47, 8514.70, -187500.02, -187500.02, -187500.02, -187500.02, -187500.02, -187500.02, 0.000, 0.000, 0.000, 02:34:55.442
173, 29929.07, 8533.96, -187500.02, -187500.02, -187500.02, -187500.02, -187500.02, -187500.02, 0.000, 0.000, 0.000, 02:34:55.443
174, 29900.35, 8498.65, -187500.02, -187500.02, -187500.02, -187500.02, -187500.02, -187500.02, 0.000, 0.000, 0.000, 02:34:55.443
175, 29888.93, 8468.54, -187500.02, -187500.02, -187500.02, -187500.02, -187500.02, -187500.02, 0.202, 0.992, -0.086, 02:34:55.443
176, 29926.24, 8504.46, -187500.02, -187500.02, -187500.02, -187500.02, -187500.02, -187500.02, 0.000, 0.000, 0.000, 02:34:55.443
177, 29933.97, 8518.36, -187500.02, -187500.02, -187500.02, -187500.02, -187500.02, -187500.02, 0.000, 0.000, 0.000, 02:34:55.443
178, 29914.72, 8504.57, -187500.02, -187500.02, -187500.02, -187500.02, -187500.02, -187500.02, 0.000, 0.000, 0.000, 02:34:55.443
179, 29885.80, 8484.81, -187500.02, -187500.02, -187500.02, -187500.02, -187500.02, -187500.02, 0.000, 0.000, 0.000, 02:34:55.443
180, 29913.49, 8510.38, -187500.02, -187500.02, -187500.02, -187500.02, -187500.02, -187500.02, 0.000, 0.000, 0.000, 02:34:55.444
181, 29934.55, 8524.91, -187500.02, -187500.02, -187500.02, -187500.02, -187500.02, -187500.02, 0.000, 0.000, 0.000, 02:34:55.444
182, 29921.92, 8494.00, -187500.02, -187500.02, -187500.02, -187500.02, -187500.02, -187500.02, 0.000, 0.000, 0.000, 02:34:55.444
183, 29880.24, 8454.79, -187500.02, -187500.02, -187500.02, -187500.02, -187500.02, -187500.02, 0.000, 0.000, 0.000, 02:34:55.444
184, 29897.29, 8471.27, -187500.02, -187500.02, -187500.02, -187500.02, -187500.02, -187500.02, 0.000, 0.000, 0.000, 02:34:55.444
185, 29921.29, 8516.15, -187500.02, -187500.02, -187500.02, -187500.02, -187500.02, -187500.02, 0.196, 0.996, -0.090, 02:34:55.444
186, 29924.11, 8523.57, -187500.02, -187500.02, -187500.02, -187500.02, -187500.02, -187500.02, 0.000, 0.000, 0.000, 02:34:55.444
187, 29902.72, 8495.07, -187500.02, -187500.02, -187500.02, -187500.02, -187500.02, -187500.02, 0.000, 0.000, 0.000, 02:34:55.445
188, 29906.21, 8493.06, -187500.02, -187500.02, -187500.02, -187500.02, -187500.02, -187500.02, 0.000, 0.000, 0.000, 02:34:55.445
189, 29937.14, 8518.05, -187500.02, -187500.02, -187500.02, -187500.02, -187500.02, -187500.02, 0.000, 0.000, 0.000, 02:34:55.445
190, 29943.89, 8517.98, -187500.02, -187500.02, -187500.02, -187500.02, -187500.02, -187500.02, 0.000, 0.000, 0.000, 02:34:55.445
191, 29918.48, 8504.19, -187500.02, -187500.02, -187500.02, -187500.02, -187500.02, -187500.02, 0.000, 0.000, 0.000, 02:34:55.446
192, 29904.51, 8490.06, -187500.02, -187500.02, -187500.02, -187500.02, -187500.02, -187500.02, 0.000, 0.000, 0.000, 02:34:55.446
193, 29937.30, 8510.85, -187500.02, -187500.02, -187500.02, -187500.02, -187500.02, -187500.02, 0.000, 0.000, 0.000, 02:34:55.446
194, 29935.89, 8506.87, -187500.02, -187500.02, -187500.02, -187500.02, -187500.02, -187500.02, 0.194, 0.992, -0.088, 02:34:55.446
195, 29909.05, 8470.22, -187500.02, -187500.02, -187500.02, -187500.02, -187500.02, -187500.02, 0.000, 0.000, 0.000, 02:34:55.446
196, 29900.67, 8470.73, -187500.02, -187500.02, -187500.02, -187500.02, -187500.02, -187500.02, 0.000, 0.000, 0.000, 02:34:55.447
197, 29948.97, 8526.88, -187500.02, -187500.02, -187500.02, -187500.02, -187500.02, -187500.02, 0.000, 0.000, 0.000, 02:34:55.447
198, 29937.63, 8508.48, -187500.02, -187500.02, -187500.02, -187500.02, -187500.02, -187500.02, 0.000, 0.000, 0.000, 02:34:55.447
199, 29913.54, 8488.70, -187500.02, -187500.02, -187500.02, -187500.02, -187500.02, -187500.02, 0.000, 0.000, 0.000, 02:34:55.447
200, 29896.28, 8486.93, -187500.02, -187500.02, -187500.02, -187500.02, -187500.02, -187500.02, 0.000, 0.000, 0.000, 02:34:55.448
201, 29916.54, 8501.04, -187500.02, -187500.02, -187500.02, -187500.02, -187500.02, -187500.02, 0.000, 0.000, 0.000, 02:34:55.448
202, 29919.89, 8506.54, -187500.02, -187500.02, -187500.02, -187500.02, -187500.02, -187500.02, 0.000, 0.000, 0.000, 02:34:55.448
203, 29916.47, 8494.45, -187500.02, -187500.02, -187500.02, -187500.02, -187500.02, -187500.02, 0.000, 0.000, 0.000, 02:34:55.448
204, 29892.57, 8448.96, -187500.02, -187500.02, -187500.02, -187500.02, -187500.02, -187500.02, 0.200, 0.992, -0.084, 02:34:55.448
205, 29912.00, 8466.37, -187500.02, -187500.02, -187500.02, -187500.02, -187500.02, -187500.02, 0.000, 0.000, 0.000, 02:34:55.449
206, 29933.86, 8500.73, -187500.02, -187500.02, -187500.02, -187500.02, -187500.02, -187500.02, 0.000, 0.000, 0.000, 02:34:55.449
207, 29925.30, 8517.51, -187500.02, -187500.02, -187500.02, -187500.02, -187500.02, -187500.02, 0.000, 0.000, 0.000, 02:34:55.449
208, 29902.52, 8495.00, -187500.02, -187500.02, -187500.02, -187500.02, -187500.02, -187500.02, 0.000, 0.000, 0.000, 02:34:55.449
209, 29902.90, 8474.91, -187500.02, -187500.02, -187500.02, -187500.02, -187500.02, -187500.02, 0.000, 0.000, 0.000, 02:34:55.449
210, 29934.19, 8507.52, -187500.02, -187500.02, -187500.02, -187500.02, -187500.02, -187500.02, 0.000, 0.000, 0.000, 02:34:55.912
211, 29922.46, 8501.06, -187500.02, -187500.02, -187500.02, -187500.02, -187500.02, -187500.02, 0.000, 0.000, 0.000, 02:34:55.912
212, 29895.37, 8469.30, -187500.02, -187500.02, -187500.02, -187500.02, -187500.02, -187500.02, 0.000, 0.000, 0.000, 02:34:55.912
213, 29906.66, 8460.38, -187500.02, -187500.02, -187500.02, -187500.02, -187500.02, -187500.02, 0.000, 0.000, 0.000, 02:34:55.912
214, 29941.81, 8484.52, -187500.02, -187500.02, -187500.02, -187500.02, -187500.02, -187500.02, 0.198, 0.992, -0.080, 02:34:55.912
215, 29932.92, 8498.20, -187500.02, -187500.02, -187500.02, -187500.02, -187500.02, -187500.02, 0.000, 0.000, 0.000, 02:34:55.912
216, 29901.69, 8485.66, -187500.02, -187500.02, -187500.02, -187500.02, -187500.02, -187500.02, 0.000, 0.000, 0.000, 02:34:55.912
217, 29899.46, 8475.76, -187500.02, -187500.02, -187500.02, -187500.02, -187500.02, -187500.02, 0.000, 0.000, 0.000, 02:34:55.912
218, 29927.33, 8495.36, -187500.02, -187500.02, -187500.02, -187500.02, -187500.02, -187500.02, 0.000, 0.000, 0.000, 02:34:55.913
219, 29942.53, 8499.07, -187500.02, -187500.02, -187500.02, -187500.02, -187500.02, -187500.02, 0.000, 0.000, 0.000, 02:34:55.913
220, 29929.30, 8486.11, -187500.02, -187500.02, -187500.02, -187500.02, -187500.02, -187500.02, 0.000, 0.000, 0.000, 02:34:55.913
221, 29902.36, 8442.68, -187500.02, -187500.02, -187500.02, -187500.02, -187500.02, -187500.02, 0.000, 0.000, 0.000, 02:34:55.913
222, 29929.79, 8467.13, -187500.02, -187500.02, -187500.02, -187500.02, -187500.02, -187500.02, 0.000, 0.000, 0.000, 02:34:55.913
223, 29941.48, 8502.27, -187500.02, -187500.02, -187500.02, -187500.02, -187500.02, -187500.02, 0.000, 0.000, 0.000, 02:34:55.913
224, 29937.01, 8504.70, -187500.02, -187500.02, -187500.02, -187500.02, -187500.02, -187500.02, 0.200, 0.994, -0.084, 02:34:55.913
225, 29896.22, 8460.38, -187500.02, -187500.02, -187500.02, -187500.02, -187500.02, -187500.02, 0.000, 0.000, 0.000, 02:34:55.913
226, 29916.29, 8476.36, -187500.02, -187500.02, -187500.02, -187500.02, -187500.02, -187500.02, 0.000, 0.000, 0.000, 02:34:55.913
227, 29936.67, 8496.97, -187500.02, -187500.02, -187500.02, -187500.02, -187500.02, -187500.02, 0.000, 0.000, 0.000, 02:34:55.914
228, 29918.88, 8478.71, -187500.02, -187500.02, -187500.02, -187500.02, -187500.02, -187500.02, 0.000, 0.000, 0.000, 02:34:55.914
229, 29885.35, 8447.93, -187500.02, -187500.02, -187500.02, -187500.02, -187500.02, -187500.02, 0.000, 0.000, 0.000, 02:34:55.914
230, 29899.57, 8461.61, -187500.02, -187500.02, -187500.02, -187500.02, -187500.02, -187500.02, 0.000, 0.000, 0.000, 02:34:55.914
231, 29919.89, 8488.81, -187500.02, -187500.02, -187500.02, -187500.02, -187500.02, -187500.02, 0.000, 0.000, 0.000, 02:34:55.914
232, 29924.25, 8487.34, -187500.02, -187500.02, -187500.02, -187500.02, -187500.02, -187500.02, 0.000, 0.000, 0.000, 02:34:55.914
233, 29900.22, 8443.84, -187500.02, -187500.02, -187500.02, -187500.02, -187500.02, -187500.02, 0.000, 0.000, 0.000, 02:34:55.914
234, 29912.91, 8469.84, -187500.02, -187500.02, -187500.02, -187500.02, -187500.02, -187500.02, 0.198, 0.998, -0.084, 02:34:55.914
235, 29945.73, 8515.97, -187500.02, -187500.02, -187500.02, -187500.02, -187500.02, -187500.02, 0.000, 0.000, 0.000, 02:34:55.914
236, 29928.63, 8485.79, -187500.02, -187500.02, -187500.02, -187500.02, -187500.02, -187500.02, 0.000, 0.000, 0.000, 02:34:55.915
237, 29905.05, 8464.29, -187500.02, -187500.02, -187500.02, -187500.02, -187500.02, -187500.02, 0.000, 0.000, 0.000, 02:34:55.915
238, 29904.87, 8462.44, -187500.02, -187500.02, -187500.02, -187500.02, -187500.02, -187500.02, 0.000, 0.000, 0.000, 02:34:55.915
239, 29944.27, 8486.51, -187500.02, -187500.02, -187500.02, -187500.02, -187500.02, -187500.02, 0.000, 0.000, 0.000, 02:34:55.915
240, 29935.62, 8485.28, -187500.02, -187500.02, -187500.02, -187500.02, -187500.02, -187500.02, 0.000, 0.000, 0.000, 02:34:55.915
241, 29920.96, 8460.96, -187500.02, -187500.02, -187500.02, -187500.02, -187500.02, -187500.02, 0.000, 0.000, 0.000, 02:34:55.915
242, 29913.25, 8447.13, -187500.02, -187500.02, -187500.02, -187500.02, -187500.02, -187500.02, 0.000, 0.000, 0.000, 02:34:55.915
243, 29941.19, 8499.94, -187500.02, -187500.02, -187500.02, -187500.02, -187500.02, -187500.02, 0.000, 0.000, 0.000, 02:34:55.915
244, 29938.82, 8493.95, -187500.02, -187500.02, -187500.02, -187500.02, -187500.02, -187500.02, 0.206, 1.000, -0.080, 02:34:55.915
245, 29922.53, 8471.85, -187500.02, -187500.02, -187500.02, -187500.02, -187500.02, -187500.02, 0.000, 0.000, 0.000, 02:34:55.916
246, 29902.30, 8465.23, -187500.02, -187500.02, -187500.02, -187500.02, -187500.02, -187500.02, 0.000, 0.000, 0.000, 02:34:55.916
247, 29928.25, 8475.65, -187500.02, -187500.02, -187500.02, -187500.02, -187500.02, -187500.02, 0.000, 0.000, 0.000, 02:34:55.916
248, 29944.74, 8491.92, -187500.02, -187500.02, -187500.02, -187500.02, -187500.02, -187500.02, 0.000, 0.000, 0.000, 02:34:55.916
249, 29946.26, 8491.16, -187500.02, -187500.02, -187500.02, -187500.02, -187500.02, -187500.02, 0.000, 0.000, 0.000, 02:34:55.916
250, 29926.48, 8467.35, -187500.02, -187500.02, -187500.02, -187500.02, -187500.02, -187500.02, 0.000, 0.000, 0.000, 02:34:55.916
251, 29946.51, 8482.06, -187500.02, -187500.02, -187500.02, -187500.02, -187500.02, -187500.02, 0.000, 0.000, 0.000, 02:34:55.916
252, 29959.74, 8508.35, -187500.02, -187500.02, -187500.02, -187500.02, -187500.02, -187500.02, 0.000, 0.000, 0.000, 02:34:55.916
253, 29939.96, 8485.26, -187500.02, -187500.02, -187500.02, -187500.02, -187500.02, -187500.02, 0.202, 0.998, -0.086, 02:34:55.916
254, 29915.64, 8460.49, -187500.02, -187500.02, -187500.02, -187500.02, -187500.02, -187500.02, 0.000, 0.000, 0.000, 02:34:55.917
255, 29930.84, 8473.19, -187500.02, -187500.02, -187500.02, -187500.02, -187500.02, -187500.02, 0.000, 0.000, 0.000, 02:34:55.917
0, 29944.72, 8487.81, -187500.02, -187500.02, -187500.02, -187500.02, -187500.02, -187500.02, 0.000, 0.000, 0.000, 02:34:55.917
1, 29941.14, 8486.02, -187500.02, -187500.02, -187500.02, -187500.02, -187500.02, -187500.02, 0.000, 0.000, 0.000, 02:34:55.917
2, 29907.48, 8457.81, -187500.02, -187500.02, -187500.02, -187500.02, -187500.02, -187500.02, 0.000, 0.000, 0.000, 02:34:55.917
3, 29910.52, 8432.44, -187500.02, -187500.02, -187500.02, -187500.02, -187500.02, -187500.02, 0.000, 0.000, 0.000, 02:34:55.917
4, 29946.53, 8476.94, -187500.02, -187500.02, -187500.02, -187500.02, -187500.02, -187500.02, 0.000, 0.000, 0.000, 02:34:55.917
5, 29930.08, 8474.06, -187500.02, -187500.02, -187500.02, -187500.02, -187500.02, -187500.02, 0.000, 0.000, 0.000, 02:34:55.917
6, 29902.79, 8442.52, -187500.02, -187500.02, -187500.02, -187500.02, -187500.02, -187500.02, 0.000, 0.000, 0.000, 02:34:55.917
7, 29914.97, 8452.83, -187500.02, -187500.02, -187500.02, -187500.02, -187500.02, -187500.02, 0.202, 0.994, -0.086, 02:34:55.918
8, 29952.90, 8501.33, -187500.02, -187500.02, -187500.02, -187500.02, -187500.02, -187500.02, 0.000, 0.000, 0.000, 02:34:55.918
9, 29943.80, 8492.12, -187500.02, -187500.02, -187500.02, -187500.02, -187500.02, -187500.02, 0.000, 0.000, 0.000, 02:34:55.918
10, 29918.57, 8463.53, -187500.02, -187500.02, -187500.02, -187500.02, -187500.02, -187500.02, 0.000, 0.000, 0.000, 02:34:55.918
11, 29907.26, 8454.93, -187500.02, -187500.02, -187500.02, -187500.02, -187500.02, -187500.02, 0.000, 0.000, 0.000, 02:34:55.918
12, 29943.00, 8484.97, -187500.02, -187500.02, -187500.02, -187500.02, -187500.02, -187500.02, 0.000, 0.000, 0.000, 02:34:55.918
13, 29949.59, 8491.94, -187500.02, -187500.02, -187500.02, -187500.02, -187500.02, -187500.02, 0.000, 0.000, 0.000, 02:34:55.918
14, 29923.75, 8469.77, -187500.02, -187500.02, -187500.02, -187500.02, -187500.02, -187500.02, 0.000, 0.000, 0.000, 02:34:55.918
15, 29913.25, 8485.33, -187500.02, -187500.02, -187500.02, -187500.02, -187500.02, -187500.02, 0.000, 0.000, 0.000, 02:34:55.918
16, 29947.16, 8511.79, -187500.02, -187500.02, -187500.02, -187500.02, -187500.02, -187500.02, 0.000, 0.000, 0.000, 02:34:55.919
17, 29961.82, 8525.98, -187500.02, -187500.02, -187500.02, -187500.02, -187500.02, -187500.02, 0.204, 0.994, -0.084, 02:34:55.919
18, 29937.46, 8513.47, -187500.02, -187500.02, -187500.02, -187500.02, -187500.02, -187500.02, 0.000, 0.000, 0.000, 02:34:55.919
19, 29899.88, 8472.72, -187500.02, -187500.02, -187500.02, -187500.02, -187500.02, -187500.02, 0.000, 0.000, 0.000, 02:34:55.919
20, 29935.78, 8492.86, -187500.02, -187500.02, -187500.02, -187500.02, -187500.02, -187500.02, 0.000, 0.000, 0.000, 02:34:55.919
21, 29955.45, 8534.25, -187500.02, -187500.02, -187500.02, -187500.02, -187500.02, -187500.02, 0.000, 0.000, 0.000, 02:34:55.919
22, 29944.83, 8532.20, -187500.02, -187500.02, -187500.02, -187500.02, -187500.02, -187500.02, 0.000, 0.000, 0.000, 02:34:55.919
23, 29912.96, 8503.07, -187500.02, -187500.02, -187500.02, -187500.02, -187500.02, -187500.02, 0.000, 0.000, 0.000, 02:34:55.919
24, 29926.82, 8512.75, -187500.02, -187500.02, -187500.02, -187500.02, -187500.02, -187500.02, 0.000, 0.000, 0.000, 02:34:55.919
25, 29947.34, 8539.44, -187500.02, -187500.02, -187500.02, -187500.02, -187500.02, -187500.02, 0.000, 0.000, 0.000, 02:34:55.920
26, 29945.03, 8540.22, -187500.02, -187500.02, -187500.02, -187500.02, -187500.02, -187500.02, 0.000, 0.000, 0.000, 02:34:55.920
27, 29925.27, 8514.61, -187500.02, -187500.02, -187500.02, -187500.02, -187500.02, -187500.02, 0.198, 0.992, -0.084, 02:34:55.920
28, 29924.04, 8521.47, -187500.02, -187500.02, -187500.02, -187500.02, -187500.02, -187500.02, 0.000, 0.000, 0.000, 02:34:55.920
29, 29944.09, 8537.90, -187500.02, -187500.02, -187500.02, -187500.02, -187500.02, -187500.02, 0.000, 0.000, 0.000, 02:34:55.920
30, 29954.00, 8542.10, -187500.02, -187500.02, -187500.02, -187500.02, -187500.02, -187500.02, 0.000, 0.000, 0.000, 02:34:55.920
31, 29920.67, 8516.55, -187500.02, -187500.02, -187500.02, -187500.02, -187500.02, -187500.02, 0.000, 0.000, 0.000, 02:34:55.920
32, 29916.98, 8510.00, -187500.02, -187500.02, -187500.02, -187500.02, -187500.02, -187500.02, 0.000, 0.000, 0.000, 02:34:55.920
33, 29956.10, 8558.73, -187500.02, -187500.02, -187500.02, -187500.02, -187500.02, -187500.02, 0.000, 0.000, 0.000, 02:34:55.920
34, 29957.46, 8567.45, -187500.02, -187500.02, -187500.02, -187500.02, -187500.02, -187500.02, 0.000, 0.000, 0.000, 02:34:55.920
35, 29919.66, 8524.24, -187500.02, -187500.02, -187500.02, -187500.02, -187500.02, -187500.02, 0.000, 0.000, 0.000, 02:34:55.921
36, 29909.23, 8504.91, -187500.02, -187500.02, -187500.02, -187500.02, -187500.02, -187500.02, 0.000, 0.000, 0.000, 02:34:55.921
37, 29940.14, 8534.37, -187500.02, -187500.02, -187500.02, -187500.02, -187500.02, -187500.02, 0.202, 0.992, -0.084, 02:34:55.921
38, 29935.98, 8535.39, -187500.02, -187500.02, -187500.02, -187500.02, -187500.02, -187500.02, 0.000, 0.000, 0.000, 02:34:55.921
39, 29909.36, 8515.43, -187500.02, -187500.02, -187500.02, -187500.02, -187500.02, -187500.02, 0.000, 0.000, 0.000, 02:34:55.921
40, 29897.36, 8521.27, -187500.02, -187500.02, -187500.02, -187500.02, -187500.02, -187500.02, 0.000, 0.000, 0.000, 02:34:55.921
41, 29936.32, 8545.70, -187500.02, -187500.02, -187500.02, -187500.02, -187500.02, -187500.02, 0.000, 0.000, 0.000, 02:34:55.921
42, 29944.01, 8542.75, -187500.02, -187500.02, -187500.02, -187500.02, -187500.02, -187500.02, 0.000, 0.000, 0.000, 02:34:55.921
43, 29936.23, 8547.02, -187500.02, -187500.02, -187500.02, -187500.02, -187500.02, -187500.02, 0.000, 0.000, 0.000, 02:34:55.921
44, 29904.73, 8514.05, -187500.02, -187500.02, -187500.02, -187500.02, -187500.02, -187500.02, 0.000, 0.000, 0.000, 02:34:55.922
45, 29923.60, 8527.66, -187500.02, -187500.02, -187500.02, -187500.02, -187500.02, -187500.02, 0.000, 0.000, 0.000, 02:34:55.922
46, 29949.15, 8553.97, -187500.02, -187500.02, -187500.02, -187500.02, -187500.02, -187500.02, 0.000, 0.000, 0.000, 02:34:55.922
47, 29938.91, 8546.32, -187500.02, -187500.02, -187500.02, -187500.02, -187500.02, -187500.02, 0.204, 0.994, -0.082, 02:34:55.922
48, 29915.75, 8554.97, -187500.02, -187500.02, -187500.02, -187500.02, -187500.02, -187500.02, 0.000, 0.000, 0.000, 02:34:55.922
49, 29919.69, 8548.04, -187500.02, -187500.02, -187500.02, -187500.02, -187500.02, -187500.02, 0.000, 0.000, 0.000, 02:34:55.922
50, 29947.16, 8559.80, -187500.02, -187500.02, -187500.02, -187500.02, -187500.02, -187500.02, 0.000, 0.000, 0.000, 02:34:55.922
51, 29946.15, 8563.49, -187500.02, -187500.02, -187500.02, -187500.02, -187500.02, -187500.02, 0.000, 0.000, 0.000, 02:34:55.922
52, 29914.86, 8538.90, -187500.02, -187500.02, -187500.02, -187500.02, -187500.02, -187500.02, 0.000, 0.000, 0.000, 02:34:55.922
53, 29920.07, 8522.23, -187500.02, -187500.02, -187500.02, -187500.02, -187500.02, -187500.02, 0.000, 0.000, 0.000, 02:34:55.923
54, 29952.48, 8547.66, -187500.02, -187500.02, -187500.02, -187500.02, -187500.02, -187500.02, 0.000, 0.000, 0.000, 02:34:55.923
55, 29937.21, 8562.93, -187500.02, -187500.02, -187500.02, -187500.02, -187500.02, -187500.02, 0.000, 0.000, 0.000, 02:34:55.923
56, 29906.63, 8529.40, -187500.02, -187500.02, -187500.02, -187500.02, -187500.02, -187500.02, 0.198, 0.994, -0.088, 02:34:55.923
57, 29899.90, 8535.48, -187500.02, -187500.02, -187500.02, -187500.02, -187500.02, -187500.02, 0.000, 0.000, 0.000, 02:34:55.923
58, 29931.06, 8568.38, -187500.02, -187500.02, -187500.02, -187500.02, -187500.02, -187500.02, 0.000, 0.000, 0.000, 02:34:55.923
59, 29932.70, 8563.36, -187500.02, -187500.02, -187500.02, -187500.02, -187500.02, -187500.02, 0.000, 0.000, 0.000, 02:34:55.923
60, 29920.00, 8551.87, -187500.02, -187500.02, -187500.02, -187500.02, -187500.02, -187500.02, 0.000, 0.000, 0.000, 02:34:55.923
61, 29900.62, 8513.11, -187500.02, -187500.02, -187500.02, -187500.02, -187500.02, -187500.02, 0.000, 0.000, 0.000, 02:34:55.923
62, 29937.43, 8540.67, -187500.02, -187500.02, -187500.02, -187500.02, -187500.02, -187500.02, 0.000, 0.000, 0.000, 02:34:55.924
63, 29938.95, 8557.95, -187500.02, -187500.02, -187500.02, -187500.02, -187500.02, -187500.02, 0.000, 0.000, 0.000, 02:34:55.924
64, 29919.35, 8566.95, -187500.02, -187500.02, -187500.02, -187500.02, -187500.02, -187500.02, 0.000, 0.000, 0.000, 02:34:55.924
65, 29904.20, 8535.55, -187500.02, -187500.02, -187500.02, -187500.02, -187500.02, -187500.02, 0.000, 0.000, 0.000, 02:34:55.924
66, 29930.46, 8543.24, -187500.02, -187500.02, -187500.02, -187500.02, -187500.02, -187500.02, 0.198, 0.998, -0.088, 02:34:55.924
67, 29936.72, 8552.87, -187500.02, -187500.02, -187500.02, -187500.02, -187500.02, -187500.02, 0.000, 0.000, 0.000, 02:34:55.924
68, 29928.45, 8555.55, -187500.02, -187500.02, -187500.02, -187500.02, -187500.02, -187500.02, 0.000, 0.000, 0.000, 02:34:55.924
69, 29903.01, 8528.84, -187500.02, -187500.02, -187500.02, -187500.02, -187500.02, -187500.02, 0.000, 0.000, 0.000, 02:34:55.924
70, 29927.93, 8549.68, -187500.02, -187500.02, -187500.02, -187500.02, -187500.02, -187500.02, 0.000, 0.000, 0.000, 02:34:55.924
71, 29944.18, 8561.28, -187500.02, -187500.02, -187500.02, -187500.02, -187500.02, -187500.02, 0.000, 0.000, 0.000, 02:34:55.925
72, 29931.96, 8538.88, -187500.02, -187500.02, -187500.02, -187500.02, -187500.02, -187500.02, 0.000, 0.000, 0.000, 02:34:55.925
73, 29898.88, 8511.95, -187500.02, -187500.02, -187500.02, -187500.02, -187500.02, -187500.02, 0.000, 0.000, 0.000, 02:34:55.925
74, 29911.17, 8512.91, -187500.02, -187500.02, -187500.02, -187500.02, -187500.02, -187500.02, 0.000, 0.000, 0.000, 02:34:56.392
75, 29944.07, 8548.07, -187500.02, -187500.02, -187500.02, -187500.02, -187500.02, -187500.02, 0.000, 0.000, 0.000, 02:34:56.392
76, 29927.82, 8546.84, -187500.02, -187500.02, -187500.02, -187500.02, -187500.02, -187500.02, 0.200, 0.996, -0.086, 02:34:56.392
77, 29910.34, 8535.53, -187500.02, -187500.02, -187500.02, -187500.02, -187500.02, -187500.02, 0.000, 0.000, 0.000, 02:34:56.392
78, 29914.03, 8522.70, -187500.02, -187500.02, -187500.02, -187500.02, -187500.02, -187500.02, 0.000, 0.000, 0.000, 02:34:56.393
79, 29936.83, 8542.30, -187500.02, -187500.02, -187500.02, -187500.02, -187500.02, -187500.02, 0.000, 0.000, 0.000, 02:34:56.393
80, 29931.06, 8543.75, -187500.02, -187500.02, -187500.02, -187500.02, -187500.02, -187500.02, 0.000, 0.000, 0.000, 02:34:56.393
81, 29923.75, 8537.36, -187500.02, -187500.02, -187500.02, -187500.02, -187500.02, -187500.02, 0.000, 0.000, 0.000, 02:34:56.393
82, 29892.55, 8522.72, -187500.02, -187500.02, -187500.02, -187500.02, -187500.02, -187500.02, 0.000, 0.000, 0.000, 02:34:56.393
83, 29934.42, 8572.01, -187500.02, -187500.02, -187500.02, -187500.02, -187500.02, -187500.02, 0.000, 0.000, 0.000, 02:34:56.394
84, 29959.23, 8593.84, -187500.02, -187500.02, -187500.02, -187500.02, -187500.02, -187500.02, 0.000, 0.000, 0.000, 02:34:56.394
85, 29940.07, 8567.36, -187500.02, -187500.02, -187500.02, -187500.02, -187500.02, -187500.02, 0.000, 0.000, 0.000, 02:34:56.394
86, 29917.76, 8542.93, -187500.02, -187500.02, -187500.02, -187500.02, -187500.02, -187500.02, 0.194, 0.998, -0.092, 02:34:56.394
87, 29945.26, 8571.74, -187500.02, -187500.02, -187500.02, -187500.02, -187500.02, -187500.02, 0.000, 0.000, 0.000, 02:34:56.394
88, 29941.93, 8569.23, -187500.02, -187500.02, -187500.02, -187500.02, -187500.02, -187500.02, 0.000, 0.000, 0.000, 02:34:56.394
89, 29917.88, 8543.22, -187500.02, -187500.02, -187500.02, -187500.02, -187500.02, -187500.02, 0.000, 0.000, 0.000, 02:34:56.394
90, 29894.56, 8513.87, -187500.02, -187500.02, -187500.02, -187500.02, -187500.02, -187500.02, 0.000, 0.000, 0.000, 02:34:56.395
91, 29925.83, 8545.94, -187500.02, -187500.02, -187500.02, -187500.02, -187500.02, -187500.02, 0.000, 0.000, 0.000, 02:34:56.395
92, 29947.00, 8568.52, -187500.02, -187500.02, -187500.02, -187500.02, -187500.02, -187500.02, 0.000, 0.000, 0.000, 02:34:56.395
93, 29920.42, 8553.32, -187500.02, -187500.02, -187500.02, -187500.02, -187500.02, -187500.02, 0.000, 0.000, 0.000, 02:34:56.395
94, 29900.51, 8526.30, -187500.02, -187500.02, -187500.02, -187500.02, -187500.02, -187500.02, 0.000, 0.000, 0.000, 02:34:56.395
95, 29916.20, 8535.42, -187500.02, -187500.02, -187500.02, -187500.02, -187500.02, -187500.02, 0.000, 0.000, 0.000, 02:34:56.395
96, 29941.48, 8555.76, -187500.02, -187500.02, -187500.02, -187500.02, -187500.02, -187500.02, 0.198, 0.996, -0.086, 02:34:56.395
97, 29934.04, 8552.11, -187500.02, -187500.02, -187500.02, -187500.02, -187500.02, -187500.02, 0.000, 0.000, 0.000, 02:34:56.395
98, 29910.84, 8513.38, -187500.02, -187500.02, -187500.02, -187500.02, -187500.02, -187500.02, 0.000, 0.000, 0.000, 02:34:56.396
99, 29907.82, 8501.51, -187500.02, -187500.02, -187500.02, -187500.02, -187500.02, -187500.02, 0.000, 0.000, 0.000, 02:34:56.396
100, 29941.79, 8546.93, -187500.02, -187500.02, -187500.02, -187500.02, -187500.02, -187500.02, 0.000, 0.000, 0.000, 02:34:56.396
101, 29931.00, 8558.35, -187500.02, -187500.02, -187500.02, -187500.02, -187500.02, -187500.02, 0.000, 0.000, 0.000, 02:34:56.396
102, 29895.35, 8529.58, -187500.02, -187500.02, -187500.02, -187500.02, -187500.02, -187500.02, 0.000, 0.000, 0.000, 02:34:56.396
103, 29889.85, 8513.85, -187500.02, -187500.02, -187500.02, -187500.02, -187500.02, -187500.02, 0.000, 0.000, 0.000, 02:34:56.396
104, 29937.70, 8551.69, -187500.02, -187500.02, -187500.02, -187500.02, -187500.02, -187500.02, 0.000, 0.000, 0.000, 02:34:56.396
105, 29931.40, 8542.25, -187500.02, -187500.02, -187500.02, -187500.02, -187500.02, -187500.02, 0.000, 0.000, 0.000, 02:34:56.396
106, 29903.48, 8529.34, -187500.02, -187500.02, -187500.02, -187500.02, -187500.02, -187500.02, 0.194, 0.996, -0.088, 02:34:56.397
107, 29889.78, 8501.78, -187500.02, -187500.02, -187500.02, -187500.02, -187500.02, -187500.02, 0.000, 0.000, 0.000, 02:34:56.397
108, 29934.93, 8526.45, -187500.02, -187500.02, -187500.02, -187500.02, -187500.02, -187500.02, 0.000, 0.000, 0.000, 02:34:56.397
109, 29943.18, 8554.55, -187500.02, -187500.02, -187500.02, -187500.02, -187500.02, -187500.02, 0.000, 0.000, 0.000, 02:34:56.397
110, 29924.58, 8555.98, -187500.02, -187500.02, -187500.02, -187500.02, -187500.02, -187500.02, 0.000, 0.000, 0.000, 02:34:56.397
111, 29910.03, 8523.46, -187500.02, -187500.02, -187500.02, -187500.02, -187500.02, -187500.02, 0.000, 0.000, 0.000, 02:34:56.397
112, 29930.75, 8526.77, -187500.02, -187500.02, -187500.02, -187500.02, -187500.02, -187500.02, 0.000, 0.000, 0.000, 02:34:56.397
113, 29930.73, 8545.76, -187500.02, -187500.02, -187500.02, -187500.02, -187500.02, -187500.02, 0.000, 0.000, 0.000, 02:34:56.397
114, 29925.47, 8542.41, -187500.02, -187500.02, -187500.02, -187500.02, -187500.02, -187500.02, 0.000, 0.000, 0.000, 02:34:56.398
115, 29894.36, 8511.28, -187500.02, -187500.02, -187500.02, -187500.02, -187500.02, -187500.02, 0.000, 0.000, 0.000, 02:34:56.398
116, 29914.14, 8529.25, -187500.02, -187500.02, -187500.02, -187500.02, -187500.02, -187500.02, 0.198, 0.998, -0.086, 02:34:56.398
117, 29927.78, 8537.72, -187500.02, -187500.02, -187500.02, -187500.02, -187500.02, -187500.02, 0.000, 0.000, 0.000, 02:34:56.398
118, 29926.53, 8531.57, -187500.02, -187500.02, -187500.02, -187500.02, -187500.02, -187500.02, 0.000, 0.000, 0.000, 02:34:56.398
119, 29898.16, 8500.95, -187500.02, -187500.02, -187500.02, -187500.02, -187500.02, -187500.02, 0.000, 0.000, 0.000, 02:34:56.398
120, 29915.26, 8506.76, -187500.02, -187500.02, -187500.02, -187500.02, -187500.02, -187500.02, 0.000, 0.000, 0.000, 02:34:56.398
121, 29941.41, 8531.50, -187500.02, -187500.02, -187500.02, -187500.02, -187500.02, -187500.02, 0.000, 0.000, 0.000, 02:34:56.398
122, 29919.91, 8513.98, -187500.02, -187500.02, -187500.02, -187500.02, -187500.02, -187500.02, 0.000, 0.000, 0.000, 02:34:56.398
123, 29900.38, 8495.92, -187500.02, -187500.02, -187500.02, -187500.02, -187500.02, -187500.02, 0.000, 0.000, 0.000, 02:34:56.398
124, 29907.50, 8490.44, -187500.02, -187500.02, -187500.02, -187500.02, -187500.02, -187500.02, 0.000, 0.000, 0.000, 02:34:56.399
125, 29931.69, 8540.36, -187500.02, -187500.02, -187500.02, -187500.02, -187500.02, -187500.02, 0.198, 0.996, -0.082, 02:34:56.399
126, 29926.32, 8549.68, -187500.02, -187500.02, -187500.02, -187500.02, -187500.02, -187500.02, 0.000, 0.000, 0.000, 02:34:56.399
127, 29913.92, 8529.38, -187500.02, -187500.02, -187500.02, -187500.02, -187500.02, -187500.02, 0.000, 0.000, 0.000, 02:34:56.399
128, 29905.43, 8522.29, -187500.02, -187500.02, -187500.02, -187500.02, -187500.02, -187500.02, 0.000, 0.000, 0.000, 02:34:56.399
129, 29922.90, 8534.10, -187500.02, -187500.02, -187500.02, -187500.02, -187500.02, -187500.02, 0.000, 0.000, 0.000, 02:34:56.399
130, 29919.22, 8529.63, -187500.02, -187500.02, -187500.02, -187500.02, -187500.02, -187500.02, 0.000, 0.000, 0.000, 02:34:56.400
131, 29908.31, 8519.57, -187500.02, -187500.02, -187500.02, -187500.02, -187500.02, -187500.02, 0.000, 0.000, 0.000, 02:34:56.400
132, 29886.16, 8479.22, -187500.02, -187500.02, -187500.02, -187500.02, -187500.02, -187500.02, 0.000, 0.000, 0.000, 02:34:56.400
133, 29920.54, 8524.53, -187500.02, -187500.02, -187500.02, -187500.02, -187500.02, -187500.02, 0.000, 0.000, 0.000, 02:34:56.400
134, 29934.73, 8553.99, -187500.02, -187500.02, -187500.02, -187500.02, -187500.02, -187500.02, 0.000, 0.000, 0.000, 02:34:56.400
135, 29918.55, 8518.99, -187500.02, -187500.02, -187500.02, -187500.02, -187500.02, -187500.02, 0.194, 0.994, -0.084, 02:34:56.400
136, 29893.85, 8484.83, -187500.02, -187500.02, -187500.02, -187500.02, -187500.02, -187500.02, 0.000, 0.000, 0.000, 02:34:56.400
137, 29912.60, 8504.55, -187500.02, -187500.02, -187500.02, -187500.02, -187500.02, -187500.02, 0.000, 0.000, 0.000, 02:34:56.400
138, 29924.11, 8524.17, -187500.02, -187500.02, -187500.02, -187500.02, -187500.02, -187500.02, 0.000, 0.000, 0.000, 02:34:56.400
139, 29911.13, 8512.15, -187500.02, -187500.02, -187500.02, -187500.02, -187500.02, -187500.02, 0.000, 0.000, 0.000, 02:34:56.400
140, 29876.64, 8491.00, -187500.02, -187500.02, -187500.02, -187500.02, -187500.02, -187500.02, 0.000, 0.000, 0.000, 02:34:56.401
141, 29904.46, 8506.83, -187500.02, -187500.02, -187500.02, -187500.02, -187500.02, -187500.02, 0.000, 0.000, 0.000, 02:34:56.401
142, 29938.53, 8529.72, -187500.02, -187500.02, -187500.02, -187500.02, -187500.02, -187500.02, 0.000, 0.000, 0.000, 02:34:56.401
143, 29905.00, 8506.78, -187500.02, -187500.02, -187500.02, -187500.02, -187500.02, -187500.02, 0.000, 0.000, 0.000, 02:34:56.401
144, 29867.67, 8475.76, -187500.02, -187500.02, -187500.02, -187500.02, -187500.02, -187500.02, 0.000, 0.000, 0.000, 02:34:56.401
145, 29901.13, 8489.39, -187500.02, -187500.02, -187500.02, -187500.02, -187500.02, -187500.02, 0.200, 0.994, -0.084, 02:34:56.401
146, 29926.82, 8524.44, -187500.02, -187500.02, -187500.02, -187500.02, -187500.02, -187500.02, 0.000, 0.000, 0.000, 02:34:56.401
147, 29915.51, 8524.49, -187500.02, -187500.02, -187500.02, -187500.02, -187500.02, -187500.02, 0.000, 0.000, 0.000, 02:34:56.401
148, 29891.90, 8494.62, -187500.02, -187500.02, -187500.02, -187500.02, -187500.02, -187500.02, 0.000, 0.000, 0.000, 02:34:56.401
149, 29895.39, 8464.58, -187500.02, -187500.02, -187500.02, -187500.02, -187500.02, -187500.02, 0.000, 0.000, 0.000, 02:34:56.401
150, 29936.23, 8517.33, -187500.02, -187500.02, -187500.02, -187500.02, -187500.02, -187500.02, 0.000, 0.000, 0.000, 02:34:56.402
151, 29921.07, 8528.62, -187500.02, -187500.02, -187500.02, -187500.02, -187500.02, -187500.02, 0.000, 0.000, 0.000, 02:34:56.402
152, 29894.88, 8506.78, -187500.02, -187500.02, -187500.02, -187500.02, -187500.02, -187500.02, 0.000, 0.000, 0.000, 02:34:56.402
153, 29900.96, 8492.72, -187500.02, -187500.02, -187500.02, -187500.02, -187500.02, -187500.02, 0.000, 0.000, 0.000, 02:34:56.402
154, 29920.80, 8485.08, -187500.02, -187500.02, -187500.02, -187500.02, -187500.02, -187500.02, 0.000, 0.000, 0.000, 02:34:56.402
155, 29916.98, 8523.86, -187500.02, -187500.02, -187500.02, -187500.02, -187500.02, -187500.02, 0.192, 0.994, -0.086, 02:34:56.402
