%OpenBCI Raw EEG Data
%
%Sample Rate = 250.0 Hz
%First Column = SampleIndex
%Last Column = Timestamp 
%Other Columns = EEG data in microvolts followed by Accel Data (in G) interleaved with Aux Data
0, 0.00, 0.00, 0.00, 0.00, 0.00, 0.00, 0.00, 0.00, 0.000, 0.000, 0.000, 02:35:45.124
1, 29477.44, 8439.73, -187500.02, -187500.02, -187500.02, -187500.02, -187500.02, -187500.02, 0.202, 0.998, -0.080, 02:35:45.604
2, 29503.01, 8475.94, -187500.02, -187500.02, -187500.02, -187500.02, -187500.02, -187500.02, 0.000, 0.000, 0.000, 02:35:45.605
3, 29501.55, 8478.26, -187500.02, -187500.02, -187500.02, -187500.02, -187500.02, -187500.02, 0.000, 0.000, 0.000, 02:35:45.605
4, 29462.91, 8434.34, -187500.02, -187500.02, -187500.02, -187500.02, -187500.02, -187500.02, 0.000, 0.000, 0.000, 02:35:45.605
5, 29475.67, 8431.14, -187500.02, -187500.02, -187500.02, -187500.02, -187500.02, -187500.02, 0.000, 0.000, 0.000, 02:35:45.605
6, 29496.72, 8455.69, -187500.02, -187500.02, -187500.02, -187500.02, -187500.02, -187500.02, 0.000, 0.000, 0.000, 02:35:45.605
7, 29491.27, 8443.66, -187500.02, -187500.02, -187500.02, -187500.02, -187500.02, -187500.02, 0.000, 0.000, 0.000, 02:35:45.605
8, 29462.24, 8415.34, -187500.02, -187500.02, -187500.02, -187500.02, -187500.02, -187500.02, 0.202, 0.996, -0.084, 02:35:45.605
9, 29477.19, 8431.77, -187500.02, -187500.02, -187500.02, -187500.02, -187500.02, -187500.02, 0.000, 0.000, 0.000, 02:35:45.606
10, 29510.65, 8473.68, -187500.02, -187500.02, -187500.02, -187500.02, -187500.02, -187500.02, 0.000, 0.000, 0.000, 02:35:45.606
11, 29488.72, 8461.32, -187500.02, -187500.02, -187500.02, -187500.02, -187500.02, -187500.02, 0.000, 0.000, 0.000, 02:35:45.606
12, 29478.55, 8445.92, -187500.02, -187500.02, -187500.02, -187500.02, -187500.02, -187500.02, 0.000, 0.000, 0.000, 02:35:45.606
13, 29481.79, 8447.71, -187500.02, -187500.02, -187500.02, -187500.02, -187500.02, -187500.02, 0.000, 0.000, 0.000, 02:35:45.606
14, 29503.65, 8465.19, -187500.02, -187500.02, -187500.02, -187500.02, -187500.02, -187500.02, 0.000, 0.000, 0.000, 02:35:45.606
15, 29494.42, 8458.84, -187500.02, -187500.02, -187500.02, -187500.02, -187500.02, -187500.02, 0.000, 0.000, 0.000, 02:35:45.606
16, 29475.89, 8447.64, -187500.02, -187500.02, -187500.02, -187500.02, -187500.02, -187500.02, 0.000, 0.000, 0.000, 02:35:45.607
17, 29468.27, 8431.41, -187500.02, -187500.02, -187500.02, -187500.02, -187500.02, -187500.02, 0.200, 0.990, -0.092, 02:35:45.607
18, 29487.89, 8436.51, -187500.02, -187500.02, -187500.02, -187500.02, -187500.02, -187500.02, 0.000, 0.000, 0.000, 02:35:45.607
19, 29505.40, 8440.11, -187500.02, -187500.02, -187500.02, -187500.02, -187500.02, -187500.02, 0.000, 0.000, 0.000, 02:35:45.607
20, 29487.11, 8440.47, -187500.02, -187500.02, -187500.02, -187500.02, -187500.02, -187500.02, 0.000, 0.000, 0.000, 02:35:45.607
21, 29463.64, 8433.89, -187500.02, -187500.02, -187500.02, -187500.02, -187500.02, -187500.02, 0.000, 0.000, 0.000, 02:35:45.607
22, 29487.29, 8446.81, -187500.02, -187500.02, -187500.02, -187500.02, -187500.02, -187500.02, 0.000, 0.000, 0.000, 02:35:45.607
23, 29489.28, 8446.66, -187500.02, -187500.02, -187500.02, -187500.02, -187500.02, -187500.02, 0.000, 0.000, 0.000, 02:35:45.608
24, 29484.28, 8441.76, -187500.02, -187500.02, -187500.02, -187500.02, -187500.02, -187500.02, 0.000, 0.000, 0.000, 02:35:45.608
25, 29461.45, 8413.67, -187500.02, -187500.02, -187500.02, -187500.02, -187500.02, -187500.02, 0.000, 0.000, 0.000, 02:35:45.608
26, 29482.75, 8443.95, -187500.02, -187500.02, -187500.02, -187500.02, -187500.02, -187500.02, 0.000, 0.000, 0.000, 02:35:45.608
27, 29500.46, 8454.30, -187500.02, -187500.02, -187500.02, -187500.02, -187500.02, -187500.02, 0.202, 0.990, -0.086, 02:35:45.608
28, 29500.48, 8439.66, -187500.02, -187500.02, -187500.02, -187500.02, -187500.02, -187500.02, 0.000, 0.000, 0.000, 02:35:45.608
29, 29473.97, 8432.26, -187500.02, -187500.02, -187500.02, -187500.02, -187500.02, -187500.02, 0.000, 0.000, 0.000, 02:35:45.608
30, 29488.95, 8446.79, -187500.02, -187500.02, -187500.02, -187500.02, -187500.02, -187500.02, 0.000, 0.000, 0.000, 02:35:45.609
31, 29516.01, 8451.02, -187500.02, -187500.02, -187500.02, -187500.02, -187500.02, -187500.02, 0.000, 0.000, 0.000, 02:35:45.609
32, 29497.62, 8430.41, -187500.02, -187500.02, -187500.02, -187500.02, -187500.02, -187500.02, 0.000, 0.000, 0.000, 02:35:45.609
33, 29475.04, 8439.42, -187500.02, -187500.02, -187500.02, -187500.02, -187500.02, -187500.02, 0.000, 0.000, 0.000, 02:35:45.609
34, 29478.02, 8424.82, -187500.02, -187500.02, -187500.02, -187500.02, -187500.02, -187500.02, 0.000, 0.000, 0.000, 02:35:45.609
35, 29503.92, 8447.64, -187500.02, -187500.02, -187500.02, -187500.02, -187500.02, -187500.02, 0.000, 0.000, 0.000, 02:35:45.609
36, 29509.11, 8459.38, -187500.02, -187500.02, -187500.02, -187500.02, -187500.02, -187500.02, 0.000, 0.000, 0.000, 02:35:45.609
37, 29490.91, 8446.01, -187500.02, -187500.02, -187500.02, -187500.02, -187500.02, -187500.02, 0.204, 0.996, -0.086, 02:35:45.610
38, 29485.66, 8428.22, -187500.02, -187500.02, -187500.02, -187500.02, -187500.02, -187500.02, 0.000, 0.000, 0.000, 02:35:45.610
39, 29511.43, 8461.39, -187500.02, -187500.02, -187500.02, -187500.02, -187500.02, -187500.02, 0.000, 0.000, 0.000, 02:35:45.610
40, 29513.04, 8462.55, -187500.02, -187500.02, -187500.02, -187500.02, -187500.02, -187500.02, 0.000, 0.000, 0.000, 02:35:45.610
41, 29490.51, 8444.91, -187500.02, -187500.02, -187500.02, -187500.02, -187500.02, -187500.02, 0.000, 0.000, 0.000, 02:35:45.610
42, 29481.35, 8428.84, -187500.02, -187500.02, -187500.02, -187500.02, -187500.02, -187500.02, 0.000, 0.000, 0.000, 02:35:45.610
43, 29520.53, 8454.10, -187500.02, -187500.02, -187500.02, -187500.02, -187500.02, -187500.02, 0.000, 0.000, 0.000, 02:35:45.610
44, 29514.52, 8445.14, -187500.02, -187500.02, -187500.02, -187500.02, -187500.02, -187500.02, 0.000, 0.000, 0.000, 02:35:45.610
45, 29483.02, 8404.61, -187500.02, -187500.02, -187500.02, -187500.02, -187500.02, -187500.02, 0.000, 0.000, 0.000, 02:35:45.611
46, 29473.54, 8404.43, -187500.02, -187500.02, -187500.02, -187500.02, -187500.02, -187500.02, 0.000, 0.000, 0.000, 02:35:45.611
47, 29504.59, 8454.61, -187500.02, -187500.02, -187500.02, -187500.02, -187500.02, -187500.02, 0.204, 0.996, -0.088, 02:35:45.611
48, 29510.92, 8463.22, -187500.02, -187500.02, -187500.02, -187500.02, -187500.02, -187500.02, 0.000, 0.000, 0.000, 02:35:45.611
49, 29504.35, 8449.92, -187500.02, -187500.02, -187500.02, -187500.02, -187500.02, -187500.02, 0.000, 0.000, 0.000, 02:35:45.611
50, 29483.80, 8419.19, -187500.02, -187500.02, -187500.02, -187500.02, -187500.02, -187500.02, 0.000, 0.000, 0.000, 02:35:45.611
51, 29509.87, 8449.05, -187500.02, -187500.02, -187500.02, -187500.02, -187500.02, -187500.02, 0.000, 0.000, 0.000, 02:35:45.611
52, 29529.74, 8488.66, -187500.02, -187500.02, -187500.02, -187500.02, -187500.02, -187500.02, 0.000, 0.000, 0.000, 02:35:45.611
53, 29526.94, 8511.61, -187500.02, -187500.02, -187500.02, -187500.02, -187500.02, -187500.02, 0.000, 0.000, 0.000, 02:35:45.611
54, 29510.74, 8490.87, -187500.02, -187500.02, -187500.02, -187500.02, -187500.02, -187500.02, 0.000, 0.000, 0.000, 02:35:45.611
55, 29516.33, 8480.77, -187500.02, -187500.02, -187500.02, -187500.02, -187500.02, -187500.02, 0.000, 0.000, 0.000, 02:35:45.612
56, 29525.74, 8492.17, -187500.02, -187500.02, -187500.02, -187500.02, -187500.02, -187500.02, 0.000, 0.000, 0.000, 02:35:45.612
57, 29513.55, 8509.00, -187500.02, -187500.02, -187500.02, -187500.02, -187500.02, -187500.02, 0.210, 0.996, -0.088, 02:35:45.612
58, 29504.01, 8493.57, -187500.02, -187500.02, -187500.02, -187500.02, -187500.02, -187500.02, 0.000, 0.000, 0.000, 02:35:45.612
59, 29498.18, 8477.77, -187500.02, -187500.02, -187500.02, -187500.02, -187500.02, -187500.02, 0.000, 0.000, 0.000, 02:35:45.612
60, 29522.96, 8489.77, -187500.02, -187500.02, -187500.02, -187500.02, -187500.02, -187500.02, 0.000, 0.000, 0.000, 02:35:45.612
61, 29519.19, 8509.93, -187500.02, -187500.02, -187500.02, -187500.02, -187500.02, -187500.02, 0.000, 0.000, 0.000, 02:35:45.612
62, 29483.02, 8501.17, -187500.02, -187500.02, -187500.02, -187500.02, -187500.02, -187500.02, 0.000, 0.000, 0.000, 02:35:45.613
63, 29480.09, 8493.51, -187500.02, -187500.02, -187500.02, -187500.02, -187500.02, -187500.02, 0.000, 0.000, 0.000, 02:35:45.613
64, 29518.85, 8523.57, -187500.02, -187500.02, -187500.02, -187500.02, -187500.02, -187500.02, 0.000, 0.000, 0.000, 02:35:45.620
65, 29519.90, 8523.86, -187500.02, -187500.02, -187500.02, -187500.02, -187500.02, -187500.02, 0.000, 0.000, 0.000, 02:35:45.620
66, 29494.38, 8494.85, -187500.02, -187500.02, -187500.02, -187500.02, -187500.02, -187500.02, 0.000, 0.000, 0.000, 02:35:45.620
67, 29473.03, 8460.94, -187500.02, -187500.02, -187500.02, -187500.02, -187500.02, -187500.02, 0.204, 0.994, -0.092, 02:35:45.620
68, 29500.90, 8495.83, -187500.02, -187500.02, -187500.02, -187500.02, -187500.02, -187500.02, 0.000, 0.000, 0.000, 02:35:45.621
69, 29502.09, 8516.46, -187500.02, -187500.02, -187500.02, -187500.02, -187500.02, -187500.02, 0.000, 0.000, 0.000, 02:35:45.621
70, 29489.33, 8508.30, -187500.02, -187500.02, -187500.02, -187500.02, -187500.02, -187500.02, 0.000, 0.000, 0.000, 02:35:45.621
71, 29472.09, 8486.02, -187500.02, -187500.02, -187500.02, -187500.02, -187500.02, -187500.02, 0.000, 0.000, 0.000, 02:35:45.621
72, 29499.34, 8505.35, -187500.02, -187500.02, -187500.02, -187500.02, -187500.02, -187500.02, 0.000, 0.000, 0.000, 02:35:45.621
73, 29507.56, 8511.43, -187500.02, -187500.02, -187500.02, -187500.02, -187500.02, -187500.02, 0.000, 0.000, 0.000, 02:35:45.621
74, 29497.53, 8502.87, -187500.02, -187500.02, -187500.02, -187500.02, -187500.02, -187500.02, 0.000, 0.000, 0.000, 02:35:45.621
75, 29483.92, 8491.09, -187500.02, -187500.02, -187500.02, -187500.02, -187500.02, -187500.02, 0.000, 0.000, 0.000, 02:35:45.621
76, 29485.30, 8497.84, -187500.02, -187500.02, -187500.02, -187500.02, -187500.02, -187500.02, 0.000, 0.000, 0.000, 02:35:45.621
77, 29500.26, 8502.60, -187500.02, -187500.02, -187500.02, -187500.02, -187500.02, -187500.02, 0.208, 0.996, -0.096, 02:35:45.622
78, 29504.14, 8498.47, -187500.02, -187500.02, -187500.02, -187500.02, -187500.02, -187500.02, 0.000, 0.000, 0.000, 02:35:45.622
79, 29481.26, 8475.85, -187500.02, -187500.02, -187500.02, -187500.02, -187500.02, -187500.02, 0.000, 0.000, 0.000, 02:35:45.622
80, 29473.99, 8469.14, -187500.02, -187500.02, -187500.02, -187500.02, -187500.02, -187500.02, 0.000, 0.000, 0.000, 02:35:45.622
81, 29504.90, 8507.14, -187500.02, -187500.02, -187500.02, -187500.02, -187500.02, -187500.02, 0.000, 0.000, 0.000, 02:35:45.622
82, 29512.86, 8524.93, -187500.02, -187500.02, -187500.02, -187500.02, -187500.02, -187500.02, 0.000, 0.000, 0.000, 02:35:45.622
83, 29483.49, 8497.48, -187500.02, -187500.02, -187500.02, -187500.02, -187500.02, -187500.02, 0.000, 0.000, 0.000, 02:35:45.622
84, 29471.78, 8484.23, -187500.02, -187500.02, -187500.02, -187500.02, -187500.02, -187500.02, 0.000, 0.000, 0.000, 02:35:45.622
85, 29512.82, 8514.41, -187500.02, -187500.02, -187500.02, -187500.02, -187500.02, -187500.02, 0.000, 0.000, 0.000, 02:35:45.622
86, 29492.79, 8528.44, -187500.02, -187500.02, -187500.02, -187500.02, -187500.02, -187500.02, 0.216, 0.996, -0.096, 02:35:45.623
87, 29476.34, 8513.85, -187500.02, -187500.02, -187500.02, -187500.02, -187500.02, -187500.02, 0.000, 0.000, 0.000, 02:35:45.623
88, 29477.88, 8490.44, -187500.02, -187500.02, -187500.02, -187500.02, -187500.02, -187500.02, 0.000, 0.000, 0.000, 02:35:45.623
89, 29512.01, 8524.44, -187500.02, -187500.02, -187500.02, -187500.02, -187500.02, -187500.02, 0.000, 0.000, 0.000, 02:35:45.623
90, 29512.95, 8541.70, -187500.02, -187500.02, -187500.02, -187500.02, -187500.02, -187500.02, 0.000, 0.000, 0.000, 02:35:45.623
91, 29497.06, 8510.72, -187500.02, -187500.02, -187500.02, -187500.02, -187500.02, -187500.02, 0.000, 0.000, 0.000, 02:35:45.623
92, 29478.33, 8493.60, -187500.02, -187500.02, -187500.02, -187500.02, -187500.02, -187500.02, 0.000, 0.000, 0.000, 02:35:45.623
93, 29515.59, 8524.24, -187500.02, -187500.02, -187500.02, -187500.02, -187500.02, -187500.02, 0.000, 0.000, 0.000, 02:35:45.623
94, 29528.13, 8554.53, -187500.02, -187500.02, -187500.02, -187500.02, -187500.02, -187500.02, 0.000, 0.000, 0.000, 02:35:45.624
95, 29504.21, 8533.56, -187500.02, -187500.02, -187500.02, -187500.02, -187500.02, -187500.02, 0.000, 0.000, 0.000, 02:35:45.624
96, 29485.93, 8492.21, -187500.02, -187500.02, -187500.02, -187500.02, -187500.02, -187500.02, 0.212, 0.998, -0.088, 02:35:45.624
97, 29512.28, 8502.63, -187500.02, -187500.02, -187500.02, -187500.02, -187500.02, -187500.02, 0.000, 0.000, 0.000, 02:35:45.624
98, 29514.65, 8524.26, -187500.02, -187500.02, -187500.02, -187500.02, -187500.02, -187500.02, 0.000, 0.000, 0.000, 02:35:45.624
99, 29505.84, 8541.41, -187500.02, -187500.02, -187500.02, -187500.02, -187500.02, -187500.02, 0.000, 0.000, 0.000, 02:35:45.624
100, 29487.38, 8508.10, -187500.02, -187500.02, -187500.02, -187500.02, -187500.02, -187500.02, 0.000, 0.000, 0.000, 02:35:45.624
101, 29504.44, 8518.27, -187500.02, -187500.02, -187500.02, -187500.02, -187500.02, -187500.02, 0.000, 0.000, 0.000, 02:35:45.624
102, 29526.32, 8537.36, -187500.02, -187500.02, -187500.02, -187500.02, -187500.02, -187500.02, 0.000, 0.000, 0.000, 02:35:45.625
103, 29517.76, 8530.79, -187500.02, -187500.02, -187500.02, -187500.02, -187500.02, -187500.02, 0.000, 0.000, 0.000, 02:35:45.625
104, 29492.01, 8501.84, -187500.02, -187500.02, -187500.02, -187500.02, -187500.02, -187500.02, 0.000, 0.000, 0.000, 02:35:45.625
105, 29490.47, 8494.42, -187500.02, -187500.02, -187500.02, -187500.02, -187500.02, -187500.02, 0.000, 0.000, 0.000, 02:35:45.625
106, 29527.01, 8530.57, -187500.02, -187500.02, -187500.02, -187500.02, -187500.02, -187500.02, 0.210, 0.998, -0.094, 02:35:45.625
107, 29517.11, 8513.40, -187500.02, -187500.02, -187500.02, -187500.02, -187500.02, -187500.02, 0.000, 0.000, 0.000, 02:35:45.625
108, 29482.44, 8479.58, -187500.02, -187500.02, -187500.02, -187500.02, -187500.02, -187500.02, 0.000, 0.000, 0.000, 02:35:45.625
109, 29467.24, 8457.14, -187500.02, -187500.02, -187500.02, -187500.02, -187500.02, -187500.02, 0.000, 0.000, 0.000, 02:35:45.625
110, 29507.45, 8510.00, -187500.02, -187500.02, -187500.02, -187500.02, -187500.02, -187500.02, 0.000, 0.000, 0.000, 02:35:45.625
111, 29496.66, 8515.25, -187500.02, -187500.02, -187500.02, -187500.02, -187500.02, -187500.02, 0.000, 0.000, 0.000, 02:35:45.626
112, 29470.86, 8470.93, -187500.02, -187500.02, -187500.02, -187500.02, -187500.02, -187500.02, 0.000, 0.000, 0.000, 02:35:45.626
113, 29480.41, 8479.33, -187500.02, -187500.02, -187500.02, -187500.02, -187500.02, -187500.02, 0.000, 0.000, 0.000, 02:35:45.626
114, 29516.57, 8521.38, -187500.02, -187500.02, -187500.02, -187500.02, -187500.02, -187500.02, 0.000, 0.000, 0.000, 02:35:45.626
115, 29510.76, 8520.64, -187500.02, -187500.02, -187500.02, -187500.02, -187500.02, -187500.02, 0.000, 0.000, 0.000, 02:35:45.626
116, 29496.79, 8496.86, -187500.02, -187500.02, -187500.02, -187500.02, -187500.02, -187500.02, 0.206, 1.002, -0.092, 02:35:45.626
117, 29487.22, 8486.93, -187500.02, -187500.02, -187500.02, -187500.02, -187500.02, -187500.02, 0.000, 0.000, 0.000, 02:35:45.626
118, 29506.27, 8522.12, -187500.02, -187500.02, -187500.02, -187500.02, -187500.02, -187500.02, 0.000, 0.000, 0.000, 02:35:45.627
119, 29519.17, 8539.89, -187500.02, -187500.02, -187500.02, -187500.02, -187500.02, -187500.02, 0.000, 0.000, 0.000, 02:35:45.627
120, 29504.03, 8517.76, -187500.02, -187500.02, -187500.02, -187500.02, -187500.02, -187500.02, 0.000, 0.000, 0.000, 02:35:45.627
121, 29471.76, 8488.01, -187500.02, -187500.02, -187500.02, -187500.02, -187500.02, -187500.02, 0.000, 0.000, 0.000, 02:35:46.084
122, 29488.30, 8491.81, -187500.02, -187500.02, -187500.02, -187500.02, -187500.02, -187500.02, 0.000, 0.000, 0.000, 02:35:46.085
123, 29518.58, 8516.55, -187500.02, -187500.02, -187500.02, -187500.02, -187500.02, -187500.02, 0.000, 0.000, 0.000, 02:35:46.085
124, 29506.94, 8521.18, -187500.02, -187500.02, -187500.02, -187500.02, -187500.02, -187500.02, 0.000, 0.000, 0.000, 02:35:46.085
125, 29469.57, 8483.76, -187500.02, -187500.02, -187500.02, -187500.02, -187500.02, -187500.02, 0.000, 0.000, 0.000, 02:35:46.085
126, 29497.04, 8500.55, -187500.02, -187500.02, -187500.02, -187500.02, -187500.02, -187500.02, 0.210, 1.008, -0.090, 02:35:46.085
127, 29521.71, 8513.80, -187500.02, -187500.02, -187500.02, -187500.02, -187500.02, -187500.02, 0.000, 0.000, 0.000, 02:35:46.085
128, 29508.95, 8508.95, -187500.02, -187500.02, -187500.02, -187500.02, -187500.02, -187500.02, 0.000, 0.000, 0.000, 02:35:46.085
129, 29480.27, 8489.93, -187500.02, -187500.02, -187500.02, -187500.02, -187500.02, -187500.02, 0.000, 0.000, 0.000, 02:35:46.086
130, 29473.99, 8482.78, -187500.02, -187500.02, -187500.02, -187500.02, -187500.02, -187500.02, 0.000, 0.000, 0.000, 02:35:46.086
131, 29505.20, 8519.34, -187500.02, -187500.02, -187500.02, -187500.02, -187500.02, -187500.02, 0.000, 0.000, 0.000, 02:35:46.086
132, 29510.31, 8526.18, -187500.02, -187500.02, -187500.02, -187500.02, -187500.02, -187500.02, 0.000, 0.000, 0.000, 02:35:46.086
133, 29480.03, 8499.45, -187500.02, -187500.02, -187500.02, -187500.02, -187500.02, -187500.02, 0.000, 0.000, 0.000, 02:35:46.086
134, 29464.45, 8477.10, -187500.02, -187500.02, -187500.02, -187500.02, -187500.02, -187500.02, 0.000, 0.000, 0.000, 02:35:46.086
135, 29492.05, 8500.23, -187500.02, -187500.02, -187500.02, -187500.02, -187500.02, -187500.02, 0.000, 0.000, 0.000, 02:35:46.087
136, 29504.82, 8499.07, -187500.02, -187500.02, -187500.02, -187500.02, -187500.02, -187500.02, 0.208, 0.998, -0.088, 02:35:46.087
137, 29482.89, 8486.93, -187500.02, -187500.02, -187500.02, -187500.02, -187500.02, -187500.02, 0.000, 0.000, 0.000, 02:35:46.087
138, 29459.89, 8480.92, -187500.02, -187500.02, -187500.02, -187500.02, -187500.02, -187500.02, 0.000, 0.000, 0.000, 02:35:46.087
139, 29493.26, 8498.45, -187500.02, -187500.02, -187500.02, -187500.02, -187500.02, -187500.02, 0.000, 0.000, 0.000, 02:35:46.087
140, 29503.68, 8509.49, -187500.02, -187500.02, -187500.02, -187500.02, -187500.02, -187500.02, 0.000, 0.000, 0.000, 02:35:46.088
141, 29491.09, 8502.74, -187500.02, -187500.02, -187500.02, -187500.02, -187500.02, -187500.02, 0.000, 0.000, 0.000, 02:35:46.088
142, 29469.41, 8462.10, -187500.02, -187500.02, -187500.02, -187500.02, -187500.02, -187500.02, 0.000, 0.000, 0.000, 02:35:46.088
143, 29508.84, 8489.50, -187500.02, -187500.02, -187500.02, -187500.02, -187500.02, -187500.02, 0.000, 0.000, 0.000, 02:35:46.088
144, 29517.38, 8517.87, -187500.02, -187500.02, -187500.02, -187500.02, -187500.02, -187500.02, 0.000, 0.000, 0.000, 02:35:46.088
145, 29491.43, 8498.29, -187500.02, -187500.02, -187500.02, -187500.02, -187500.02, -187500.02, 0.210, 0.994, -0.092, 02:35:46.088
146, 29460.29, 8483.22, -187500.02, -187500.02, -187500.02, -187500.02, -187500.02, -187500.02, 0.000, 0.000, 0.000, 02:35:46.088
147, 29488.74, 8490.49, -187500.02, -187500.02, -187500.02, -187500.02, -187500.02, -187500.02, 0.000, 0.000, 0.000, 02:35:46.088
148, 29508.73, 8503.86, -187500.02, -187500.02, -187500.02, -187500.02, -187500.02, -187500.02, 0.000, 0.000, 0.000, 02:35:46.088
149, 29489.06, 8495.25, -187500.02, -187500.02, -187500.02, -187500.02, -187500.02, -187500.02, 0.000, 0.000, 0.000, 02:35:46.089
150, 29470.55, 8477.26, -187500.02, -187500.02, -187500.02, -187500.02, -187500.02, -187500.02, 0.000, 0.000, 0.000, 02:35:46.089
151, 29497.55, 8492.12, -187500.02, -187500.02, -187500.02, -187500.02, -187500.02, -187500.02, 0.000, 0.000, 0.000, 02:35:46.089
152, 29531.30, 8515.03, -187500.02, -187500.02, -187500.02, -187500.02, -187500.02, -187500.02, 0.000, 0.000, 0.000, 02:35:46.089
153, 29516.15, 8509.58, -187500.02, -187500.02, -187500.02, -187500.02, -187500.02, -187500.02, 0.000, 0.000, 0.000, 02:35:46.089
154, 29484.65, 8499.36, -187500.02, -187500.02, -187500.02, -187500.02, -187500.02, -187500.02, 0.000, 0.000, 0.000, 02:35:46.089
155, 29471.65, 8483.27, -187500.02, -187500.02, -187500.02, -187500.02, -187500.02, -187500.02, 0.214, 0.994, -0.092, 02:35:46.089
156, 29502.54, 8501.58, -187500.02, -187500.02, -187500.02, -187500.02, -187500.02, -187500.02, 0.000, 0.000, 0.000, 02:35:46.090
157, 29508.01, 8496.72, -187500.02, -187500.02, -187500.02, -187500.02, -187500.02, -187500.02, 0.000, 0.000, 0.000, 02:35:46.090
158, 29483.54, 8486.20, -187500.02, -187500.02, -187500.02, -187500.02, -187500.02, -187500.02, 0.000, 0.000, 0.000, 02:35:46.090
159, 29484.50, 8449.00, -187500.02, -187500.02, -187500.02, -187500.02, -187500.02, -187500.02, 0.000, 0.000, 0.000, 02:35:46.090
160, 29513.44, 8483.58, -187500.02, -187500.02, -187500.02, -187500.02, -187500.02, -187500.02, 0.000, 0.000, 0.000, 02:35:46.090
161, 29508.97, 8513.82, -187500.02, -187500.02, -187500.02, -187500.02, -187500.02, -187500.02, 0.000, 0.000, 0.000, 02:35:46.090
162, 29479.07, 8469.39, -187500.02, -187500.02, -187500.02, -187500.02, -187500.02, -187500.02, 0.000, 0.000, 0.000, 02:35:46.090
163, 29451.73, 8458.01, -187500.02, -187500.02, -187500.02, -187500.02, -187500.02, -187500.02, 0.000, 0.000, 0.000, 02:35:46.091
164, 29490.71, 8497.17, -187500.02, -187500.02, -187500.02, -187500.02, -187500.02, -187500.02, 0.000, 0.000, 0.000, 02:35:46.091
165, 29493.68, 8500.73, -187500.02, -187500.02, -187500.02, -187500.02, -187500.02, -187500.02, 0.212, 0.992, -0.098, 02:35:46.091
166, 29481.64, 8486.13, -187500.02, -187500.02, -187500.02, -187500.02, -187500.02, -187500.02, 0.000, 0.000, 0.000, 02:35:46.091
167, 29476.14, 8469.50, -187500.02, -187500.02, -187500.02, -187500.02, -187500.02, -187500.02, 0.000, 0.000, 0.000, 02:35:46.091
168, 29511.03, 8494.60, -187500.02, -187500.02, -187500.02, -187500.02, -187500.02, -187500.02, 0.000, 0.000, 0.000, 02:35:46.091
169, 29522.70, 8505.15, -187500.02, -187500.02, -187500.02, -187500.02, -187500.02, -187500.02, 0.000, 0.000, 0.000, 02:35:46.091
170, 29489.21, 8478.75, -187500.02, -187500.02, -187500.02, -187500.02, -187500.02, -187500.02, 0.000, 0.000, 0.000, 02:35:46.091
171, 29471.53, 8475.74, -187500.02, -187500.02, -187500.02, -187500.02, -187500.02, -187500.02, 0.000, 0.000, 0.000, 02:35:46.092
172, 29502.18, 8488.19, -187500.02, -187500.02, -187500.02, -187500.02, -187500.02, -187500.02, 0.000, 0.000, 0.000, 02:35:46.092
173, 29517.36, 8493.64, -187500.02, -187500.02, -187500.02, -187500.02, -187500.02, -187500.02, 0.000, 0.000, 0.000, 02:35:46.092
174, 29499.90, 8484.10, -187500.02, -187500.02, -187500.02, -187500.02, -187500.02, -187500.02, 0.000, 0.000, 0.000, 02:35:46.092
175, 29472.38, 8473.12, -187500.02, -187500.02, -187500.02, -187500.02, -187500.02, -187500.02, 0.210, 0.990, -0.094, 02:35:46.092
176, 29477.46, 8479.36, -187500.02, -187500.02, -187500.02, -187500.02, -187500.02, -187500.02, 0.000, 0.000, 0.000, 02:35:46.092
177, 29502.13, 8488.14, -187500.02, -187500.02, -187500.02, -187500.02, -187500.02, -187500.02, 0.000, 0.000, 0.000, 02:35:46.092
178, 29498.07, 8484.25, -187500.02, -187500.02, -187500.02, -187500.02, -187500.02, -187500.02, 0.000, 0.000, 0.000, 02:35:46.092
179, 29484.48, 8485.24, -187500.02, -187500.02, -187500.02, -187500.02, -187500.02, -187500.02, 0.000, 0.000, 0.000, 02:35:46.092
180, 29480.12, 8470.28, -187500.02, -187500.02, -187500.02, -187500.02, -187500.02, -187500.02, 0.000, 0.000, 0.000, 02:35:46.093
181, 29503.59, 8489.15, -187500.02, -187500.02, -187500.02, -187500.02, -187500.02, -187500.02, 0.000, 0.000, 0.000, 02:35:46.093
182, 29498.20, 8475.47, -187500.02, -187500.02, -187500.02, -187500.02, -187500.02, -187500.02, 0.000, 0.000, 0.000, 02:35:46.093
183, 29482.78, 8452.69, -187500.02, -187500.02, -187500.02, -187500.02, -187500.02, -187500.02, 0.000, 0.000, 0.000, 02:35:46.093
184, 29472.36, 8451.33, -187500.02, -187500.02, -187500.02, -187500.02, -187500.02, -187500.02, 0.000, 0.000, 0.000, 02:35:46.093
185, 29506.45, 8502.51, -187500.02, -187500.02, -187500.02, -187500.02, -187500.02, -187500.02, 0.208, 0.994, -0.094, 02:35:46.093
186, 29494.11, 8497.19, -187500.02, -187500.02, -187500.02, -187500.02, -187500.02, -187500.02, 0.000, 0.000, 0.000, 02:35:46.093
187, 29474.53, 8471.76, -187500.02, -187500.02, -187500.02, -187500.02, -187500.02, -187500.02, 0.000, 0.000, 0.000, 02:35:46.094
188, 29456.18, 8441.02, -187500.02, -187500.02, -187500.02, -187500.02, -187500.02, -187500.02, 0.000, 0.000, 0.000, 02:35:46.094
189, 29490.85, 8476.14, -187500.02, -187500.02, -187500.02, -187500.02, -187500.02, -187500.02, 0.000, 0.000, 0.000, 02:35:46.094
190, 29503.81, 8476.88, -187500.02, -187500.02, -187500.02, -187500.02, -187500.02, -187500.02, 0.000, 0.000, 0.000, 02:35:46.094
191, 29488.03, 8467.13, -187500.02, -187500.02, -187500.02, -187500.02, -187500.02, -187500.02, 0.000, 0.000, 0.000, 02:35:46.094
192, 29457.94, 8452.45, -187500.02, -187500.02, -187500.02, -187500.02, -187500.02, -187500.02, 0.000, 0.000, 0.000, 02:35:46.094
193, 29491.00, 8482.55, -187500.02, -187500.02, -187500.02, -187500.02, -187500.02, -187500.02, 0.000, 0.000, 0.000, 02:35:46.094
194, 29508.19, 8489.39, -187500.02, -187500.02, -187500.02, -187500.02, -187500.02, -187500.02, 0.000, 0.000, 0.000, 02:35:46.095
195, 29492.75, 8472.90, -187500.02, -187500.02, -187500.02, -187500.02, -187500.02, -187500.02, 0.210, 0.992, -0.084, 02:35:46.095
196, 29471.36, 8471.91, -187500.02, -187500.02, -187500.02, -187500.02, -187500.02, -187500.02, 0.000, 0.000, 0.000, 02:35:46.095
197, 29483.80, 8472.96, -187500.02, -187500.02, -187500.02, -187500.02, -187500.02, -187500.02, 0.000, 0.000, 0.000, 02:35:46.095
198, 29519.54, 8490.78, -187500.02, -187500.02, -187500.02, -187500.02, -187500.02, -187500.02, 0.000, 0.000, 0.000, 02:35:46.095
199, 29500.14, 8481.35, -187500.02, -187500.02, -187500.02, -187500.02, -187500.02, -187500.02, 0.000, 0.000, 0.000, 02:35:46.095
200, 29465.30, 8441.90, -187500.02, -187500.02, -187500.02, -187500.02, -187500.02, -187500.02, 0.000, 0.000, 0.000, 02:35:46.095
201, 29481.99, 8451.48, -187500.02, -187500.02, -187500.02, -187500.02, -187500.02, -187500.02, 0.000, 0.000, 0.000, 02:35:46.095
202, 29510.85, 8502.78, -187500.02, -187500.02, -187500.02, -187500.02, -187500.02, -187500.02, 0.000, 0.000, 0.000, 02:35:46.095
203, 29507.01, 8478.20, -187500.02, -187500.02, -187500.02, -187500.02, -187500.02, -187500.02, 0.000, 0.000, 0.000, 02:35:46.096
204, 29479.02, 8469.03, -187500.02, -187500.02, -187500.02, -187500.02, -187500.02, -187500.02, 0.000, 0.000, 0.000, 02:35:46.096
205, 29462.10, 8462.62, -187500.02, -187500.02, -187500.02, -187500.02, -187500.02, -187500.02, 0.206, 0.992, -0.084, 02:35:46.096
206, 29498.02, 8478.44, -187500.02, -187500.02, -187500.02, -187500.02, -187500.02, -187500.02, 0.000, 0.000, 0.000, 02:35:46.096
207, 29504.77, 8478.44, -187500.02, -187500.02, -187500.02, -187500.02, -187500.02, -187500.02, 0.000, 0.000, 0.000, 02:35:46.096
208, 29493.28, 8473.75, -187500.02, -187500.02, -187500.02, -187500.02, -187500.02, -187500.02, 0.000, 0.000, 0.000, 02:35:46.096
209, 29470.84, 8448.91, -187500.02, -187500.02, -187500.02, -187500.02, -187500.02, -187500.02, 0.000, 0.000, 0.000, 02:35:46.096
210, 29502.60, 8482.29, -187500.02, -187500.02, -187500.02, -187500.02, -187500.02, -187500.02, 0.000, 0.000, 0.000, 02:35:46.097
211, 29493.73, 8473.86, -187500.02, -187500.02, -187500.02, -187500.02, -187500.02, -187500.02, 0.000, 0.000, 0.000, 02:35:46.097
212, 29472.05, 8437.98, -187500.02, -187500.02, -187500.02, -187500.02, -187500.02, -187500.02, 0.000, 0.000, 0.000, 02:35:46.097
213, 29454.86, 8413.89, -187500.02, -187500.02, -187500.02, -187500.02, -187500.02, -187500.02, 0.000, 0.000, 0.000, 02:35:46.097
214, 29494.78, 8480.27, -187500.02, -187500.02, -187500.02, -187500.02, -187500.02, -187500.02, 0.208, 0.988, -0.088, 02:35:46.097
215, 29505.51, 8494.36, -187500.02, -187500.02, -187500.02, -187500.02, -187500.02, -187500.02, 0.000, 0.000, 0.000, 02:35:46.097
216, 29480.21, 8472.72, -187500.02, -187500.02, -187500.02, -187500.02, -187500.02, -187500.02, 0.000, 0.000, 0.000, 02:35:46.098
217, 29463.17, 8445.79, -187500.02, -187500.02, -187500.02, -187500.02, -187500.02, -187500.02, 0.000, 0.000, 0.000, 02:35:46.098
218, 29489.84, 8468.63, -187500.02, -187500.02, -187500.02, -187500.02, -187500.02, -187500.02, 0.000, 0.000, 0.000, 02:35:46.098
219, 29494.82, 8481.73, -187500.02, -187500.02, -187500.02, -187500.02, -187500.02, -187500.02, 0.000, 0.000, 0.000, 02:35:46.098
220, 29474.64, 8457.77, -187500.02, -187500.02, -187500.02, -187500.02, -187500.02, -187500.02, 0.000, 0.000, 0.000, 02:35:46.098
221, 29451.42, 8436.46, -187500.02, -187500.02, -187500.02, -187500.02, -187500.02, -187500.02, 0.000, 0.000, 0.000, 02:35:46.098
222, 29474.78, 8431.66, -187500.02, -187500.02, -187500.02, -187500.02, -187500.02, -187500.02, 0.000, 0.000, 0.000, 02:35:46.099
223, 29511.86, 8467.53, -187500.02, -187500.02, -187500.02, -187500.02, -187500.02, -187500.02, 0.000, 0.000, 0.000, 02:35:46.099
224, 29495.21, 8490.13, -187500.02, -187500.02, -187500.02, -187500.02, -187500.02, -187500.02, 0.210, 0.992, -0.086, 02:35:46.099
225, 29471.85, 8453.18, -187500.02, -187500.02, -187500.02, -187500.02, -187500.02, -187500.02, 0.000, 0.000, 0.000, 02:35:46.099
226, 29490.24, 8463.40, -187500.02, -187500.02, -187500.02, -187500.02, -187500.02, -187500.02, 0.000, 0.000, 0.000, 02:35:46.099
227, 29508.62, 8477.26, -187500.02, -187500.02, -187500.02, -187500.02, -187500.02, -187500.02, 0.000, 0.000, 0.000, 02:35:46.100
228, 29492.14, 8452.67, -187500.02, -187500.02, -187500.02, -187500.02, -187500.02, -187500.02, 0.000, 0.000, 0.000, 02:35:46.100
229, 29468.61, 8427.43, -187500.02, -187500.02, -187500.02, -187500.02, -187500.02, -187500.02, 0.000, 0.000, 0.000, 02:35:46.100
230, 29459.58, 8422.50, -187500.02, -187500.02, -187500.02, -187500.02, -187500.02, -187500.02, 0.000, 0.000, 0.000, 02:35:46.100
231, 29503.72, 8490.40, -187500.02, -187500.02, -187500.02, -187500.02, -187500.02, -187500.02, 0.000, 0.000, 0.000, 02:35:46.100
232, 29502.36, 8490.15, -187500.02, -187500.02, -187500.02, -187500.02, -187500.02, -187500.02, 0.000, 0.000, 0.000, 02:35:46.100
233, 29471.94, 8454.30, -187500.02, -187500.02, -187500.02, -187500.02, -187500.02, -187500.02, 0.000, 0.000, 0.000, 02:35:46.101
234, 29462.12, 8442.68, -187500.02, -187500.02, -187500.02, -187500.02, -187500.02, -187500.02, 0.206, 0.994, -0.084, 02:35:46.101
235, 29502.78, 8468.58, -187500.02, -187500.02, -187500.02, -187500.02, -187500.02, -187500.02, 0.000, 0.000, 0.000, 02:35:46.101
236, 29499.14, 8460.67, -187500.02, -187500.02, -187500.02, -187500.02, -187500.02, -187500.02, 0.000, 0.000, 0.000, 02:35:46.101
237, 29483.00, 8455.42, -187500.02, -187500.02, -187500.02, -187500.02, -187500.02, -187500.02, 0.000, 0.000, 0.000, 02:35:46.101
238, 29455.04, 8423.95, -187500.02, -187500.02, -187500.02, -187500.02, -187500.02, -187500.02, 0.000, 0.000, 0.000, 02:35:46.101
239, 29486.04, 8448.33, -187500.02, -187500.02, -187500.02, -187500.02, -187500.02, -187500.02, 0.000, 0.000, 0.000, 02:35:46.101
240, 29496.63, 8459.08, -187500.02, -187500.02, -187500.02, -187500.02, -187500.02, -187500.02, 0.000, 0.000, 0.000, 02:35:46.101
241, 29471.40, 8425.80, -187500.02, -187500.02, -187500.02, -187500.02, -187500.02, -187500.02, 0.000, 0.000, 0.000, 02:35:46.564
242, 29447.73, 8409.49, -187500.02, -187500.02, -187500.02, -187500.02, -187500.02, -187500.02, 0.000, 0.000, 0.000, 02:35:46.564
243, 29490.20, 8469.54, -187500.02, -187500.02, -187500.02, -187500.02, -187500.02, -187500.02, 0.000, 0.000, 0.000, 02:35:46.565
244, 29517.00, 8495.21, -187500.02, -187500.02, -187500.02, -187500.02, -187500.02, -187500.02, 0.204, 0.994, -0.088, 02:35:46.565
245, 29508.62, 8479.92, -187500.02, -187500.02, -187500.02, -187500.02, -187500.02, -187500.02, 0.000, 0.000, 0.000, 02:35:46.565
246, 29484.10, 8459.89, -187500.02, -187500.02, -187500.02, -187500.02, -187500.02, -187500.02, 0.000, 0.000, 0.000, 02:35:46.565
247, 29492.28, 8456.47, -187500.02, -187500.02, -187500.02, -187500.02, -187500.02, -187500.02, 0.000, 0.000, 0.000, 02:35:46.565
248, 29505.08, 8461.61, -187500.02, -187500.02, -187500.02, -187500.02, -187500.02, -187500.02, 0.000, 0.000, 0.000, 02:35:46.565
249, 29496.43, 8461.21, -187500.02, -187500.02, -187500.02, -187500.02, -187500.02, -187500.02, 0.000, 0.000, 0.000, 02:35:46.565
250, 29464.67, 8438.10, -187500.02, -187500.02, -187500.02, -187500.02, -187500.02, -187500.02, 0.000, 0.000, 0.000, 02:35:46.565
251, 29472.03, 8429.71, -187500.02, -187500.02, -187500.02, -187500.02, -187500.02, -187500.02, 0.000, 0.000, 0.000, 02:35:46.566
252, 29501.04, 8461.25, -187500.02, -187500.02, -187500.02, -187500.02, -187500.02, -187500.02, 0.000, 0.000, 0.000, 02:35:46.566
253, 29492.81, 8458.28, -187500.02, -187500.02, -187500.02, -187500.02, -187500.02, -187500.02, 0.000, 0.000, 0.000, 02:35:46.566
254, 29473.99, 8446.97, -187500.02, -187500.02, -187500.02, -187500.02, -187500.02, -187500.02, 0.208, 0.996, -0.086, 02:35:46.566
255, 29473.95, 8431.06, -187500.02, -187500.02, -187500.02, -187500.02, -187500.02, -187500.02, 0.000, 0.000, 0.000, 02:35:46.566
0, 29497.82, 8444.33, -187500.02, -187500.02, -187500.02, -187500.02, -187500.02, -187500.02, 0.000, 0.000, 0.000, 02:35:46.566
1, 29500.26, 8469.88, -187500.02, -187500.02, -187500.02, -187500.02, -187500.02, -187500.02, 0.000, 0.000, 0.000, 02:35:46.566
2, 29491.56, 8456.25, -187500.02, -187500.02, -187500.02, -187500.02, -187500.02, -187500.02, 0.000, 0.000, 0.000, 02:35:46.567
3, 29480.97, 8440.09, -187500.02, -187500.02, -187500.02, -187500.02, -187500.02, -187500.02, 0.000, 0.000, 0.000, 02:35:46.567
4, 29502.54, 8457.45, -187500.02, -187500.02, -187500.02, -187500.02, -187500.02, -187500.02, 0.000, 0.000, 0.000, 02:35:46.567
5, 29508.24, 8461.12, -187500.02, -187500.02, -187500.02, -187500.02, -187500.02, -187500.02, 0.000, 0.000, 0.000, 02:35:46.567
6, 29475.27, 8416.24, -187500.02, -187500.02, -187500.02, -187500.02, -187500.02, -187500.02, 0.000, 0.000, 0.000, 02:35:46.567
7, 29467.55, 8410.09, -187500.02, -187500.02, -187500.02, -187500.02, -187500.02, -187500.02, 0.000, 0.000, 0.000, 02:35:46.567
8, 29497.19, 8434.41, -187500.02, -187500.02, -187500.02, -187500.02, -187500.02, -187500.02, 0.210, 0.998, -0.084, 02:35:46.567
9, 29494.47, 8461.50, -187500.02, -187500.02, -187500.02, -187500.02, -187500.02, -187500.02, 0.000, 0.000, 0.000, 02:35:46.567
10, 29475.22, 8440.98, -187500.02, -187500.02, -187500.02, -187500.02, -187500.02, -187500.02, 0.000, 0.000, 0.000, 02:35:46.568
11, 29447.84, 8414.96, -187500.02, -187500.02, -187500.02, -187500.02, -187500.02, -187500.02, 0.000, 0.000, 0.000, 02:35:46.568
12, 29483.49, 8437.54, -187500.02, -187500.02, -187500.02, -187500.02, -187500.02, -187500.02, 0.000, 0.000, 0.000, 02:35:46.568
13, 29512.04, 8462.79, -187500.02, -187500.02, -187500.02, -187500.02, -187500.02, -187500.02, 0.000, 0.000, 0.000, 02:35:46.568
14, 29502.04, 8454.59, -187500.02, -187500.02, -187500.02, -187500.02, -187500.02, -187500.02, 0.000, 0.000, 0.000, 02:35:46.568
15, 29480.50, 8429.80, -187500.02, -187500.02, -187500.02, -187500.02, -187500.02, -187500.02, 0.000, 0.000, 0.000, 02:35:46.568
16, 29485.88, 8427.08, -187500.02, -187500.02, -187500.02, -187500.02, -187500.02, -187500.02, 0.000, 0.000, 0.000, 02:35:46.568
17, 29509.55, 8448.02, -187500.02, -187500.02, -187500.02, -187500.02, -187500.02, -187500.02, 0.208, 0.992, -0.078, 02:35:46.568
18, 29506.51, 8449.58, -187500.02, -187500.02, -187500.02, -187500.02, -187500.02, -187500.02, 0.000, 0.000, 0.000, 02:35:46.569
19, 29485.77, 8438.86, -187500.02, -187500.02, -187500.02, -187500.02, -187500.02, -187500.02, 0.000, 0.000, 0.000, 02:35:46.569
20, 29479.04, 8435.86, -187500.02, -187500.02, -187500.02, -187500.02, -187500.02, -187500.02, 0.000, 0.000, 0.000, 02:35:46.569
21, 29507.56, 8462.84, -187500.02, -187500.02, -187500.02, -187500.02, -187500.02, -187500.02, 0.000, 0.000, 0.000, 02:35:46.569
22, 29502.31, 8444.29, -187500.02, -187500.02, -187500.02, -187500.02, -187500.02, -187500.02, 0.000, 0.000, 0.000, 02:35:46.569
23, 29482.82, 8415.92, -187500.02, -187500.02, -187500.02, -187500.02, -187500.02, -187500.02, 0.000, 0.000, 0.000, 02:35:46.569
24, 29479.18, 8441.87, -187500.02, -187500.02, -187500.02, -187500.02, -187500.02, -187500.02, 0.000, 0.000, 0.000, 02:35:46.570
25, 29518.23, 8468.56, -187500.02, -187500.02, -187500.02, -187500.02, -187500.02, -187500.02, 0.000, 0.000, 0.000, 02:35:46.570
26, 29518.25, 8469.66, -187500.02, -187500.02, -187500.02, -187500.02, -187500.02, -187500.02, 0.000, 0.000, 0.000, 02:35:46.570
27, 29503.16, 8452.87, -187500.02, -187500.02, -187500.02, -187500.02, -187500.02, -187500.02, 0.206, 0.994, -0.084, 02:35:46.570
28, 29488.41, 8445.88, -187500.02, -187500.02, -187500.02, -187500.02, -187500.02, -187500.02, 0.000, 0.000, 0.000, 02:35:46.570
29, 29511.37, 8473.23, -187500.02, -187500.02, -187500.02, -187500.02, -187500.02, -187500.02, 0.000, 0.000, 0.000, 02:35:46.570
30, 29522.76, 8483.67, -187500.02, -187500.02, -187500.02, -187500.02, -187500.02, -187500.02, 0.000, 0.000, 0.000, 02:35:46.570
31, 29522.21, 8485.71, -187500.02, -187500.02, -187500.02, -187500.02, -187500.02, -187500.02, 0.000, 0.000, 0.000, 02:35:46.570
32, 29487.29, 8437.49, -187500.02, -187500.02, -187500.02, -187500.02, -187500.02, -187500.02, 0.000, 0.000, 0.000, 02:35:46.570
33, 29515.61, 8484.79, -187500.02, -187500.02, -187500.02, -187500.02, -187500.02, -187500.02, 0.000, 0.000, 0.000, 02:35:46.570
34, 29530.74, 8505.89, -187500.02, -187500.02, -187500.02, -187500.02, -187500.02, -187500.02, 0.000, 0.000, 0.000, 02:35:46.570
35, 29511.10, 8500.68, -187500.02, -187500.02, -187500.02, -187500.02, -187500.02, -187500.02, 0.000, 0.000, 0.000, 02:35:46.571
36, 29490.58, 8476.43, -187500.02, -187500.02, -187500.02, -187500.02, -187500.02, -187500.02, 0.000, 0.000, 0.000, 02:35:46.571
37, 29503.14, 8480.61, -187500.02, -187500.02, -187500.02, -187500.02, -187500.02, -187500.02, 0.206, 0.996, -0.090, 02:35:46.571
38, 29507.14, 8487.63, -187500.02, -187500.02, -187500.02, -187500.02, -187500.02, -187500.02, 0.000, 0.000, 0.000, 02:35:46.571
39, 29504.50, 8482.02, -187500.02, -187500.02, -187500.02, -187500.02, -187500.02, -187500.02, 0.000, 0.000, 0.000, 02:35:46.571
40, 29494.27, 8498.33, -187500.02, -187500.02, -187500.02, -187500.02, -187500.02, -187500.02, 0.000, 0.000, 0.000, 02:35:46.571
41, 29506.67, 8496.03, -187500.02, -187500.02, -187500.02, -187500.02, -187500.02, -187500.02, 0.000, 0.000, 0.000, 02:35:46.571
42, 29526.50, 8520.91, -187500.02, -187500.02, -187500.02, -187500.02, -187500.02, -187500.02, 0.000, 0.000, 0.000, 02:35:46.571
43, 29526.25, 8542.84, -187500.02, -187500.02, -187500.02, -187500.02, -187500.02, -187500.02, 0.000, 0.000, 0.000, 02:35:46.571
44, 29505.26, 8503.39, -187500.02, -187500.02, -187500.02, -187500.02, -187500.02, -187500.02, 0.000, 0.000, 0.000, 02:35:46.572
45, 29504.84, 8501.84, -187500.02, -187500.02, -187500.02, -187500.02, -187500.02, -187500.02, 0.000, 0.000, 0.000, 02:35:46.572
46, 29534.54, 8531.97, -187500.02, -187500.02, -187500.02, -187500.02, -187500.02, -187500.02, 0.000, 0.000, 0.000, 02:35:46.572
47, 29530.14, 8519.79, -187500.02, -187500.02, -187500.02, -187500.02, -187500.02, -187500.02, 0.212, 0.994, -0.084, 02:35:46.572
48, 29499.18, 8499.07, -187500.02, -187500.02, -187500.02, -187500.02, -187500.02, -187500.02, 0.000, 0.000, 0.000, 02:35:46.572
49, 29500.72, 8499.99, -187500.02, -187500.02, -187500.02, -187500.02, -187500.02, -187500.02, 0.000, 0.000, 0.000, 02:35:46.572
50, 29523.19, 8530.99, -187500.02, -187500.02, -187500.02, -187500.02, -187500.02, -187500.02, 0.000, 0.000, 0.000, 02:35:46.572
51, 29516.39, 8523.23, -187500.02, -187500.02, -187500.02, -187500.02, -187500.02, -187500.02, 0.000, 0.000, 0.000, 02:35:46.572
52, 29508.50, 8507.45, -187500.02, -187500.02, -187500.02, -187500.02, -187500.02, -187500.02, 0.000, 0.000, 0.000, 02:35:46.573
53, 29494.56, 8508.39, -187500.02, -187500.02, -187500.02, -187500.02, -187500.02, -187500.02, 0.000, 0.000, 0.000, 02:35:46.573
54, 29518.90, 8529.34, -187500.02, -187500.02, -187500.02, -187500.02, -187500.02, -187500.02, 0.000, 0.000, 0.000, 02:35:46.573
55, 29516.17, 8525.27, -187500.02, -187500.02, -187500.02, -187500.02, -187500.02, -187500.02, 0.000, 0.000, 0.000, 02:35:46.573
56, 29495.65, 8510.74, -187500.02, -187500.02, -187500.02, -187500.02, -187500.02, -187500.02, 0.000, 0.000, 0.000, 02:35:46.573
57, 29485.26, 8494.94, -187500.02, -187500.02, -187500.02, -187500.02, -187500.02, -187500.02, 0.210, 1.000, -0.086, 02:35:46.573
58, 29490.64, 8496.30, -187500.02, -187500.02, -187500.02, -187500.02, -187500.02, -187500.02, 0.000, 0.000, 0.000, 02:35:46.573
59, 29509.58, 8499.79, -187500.02, -187500.02, -187500.02, -187500.02, -187500.02, -187500.02, 0.000, 0.000, 0.000, 02:35:46.574
60, 29505.46, 8520.40, -187500.02, -187500.02, -187500.02, -187500.02, -187500.02, -187500.02, 0.000, 0.000, 0.000, 02:35:46.574
61, 29479.98, 8502.89, -187500.02, -187500.02, -187500.02, -187500.02, -187500.02, -187500.02, 0.000, 0.000, 0.000, 02:35:46.574
62, 29496.61, 8514.14, -187500.02, -187500.02, -187500.02, -187500.02, -187500.02, -187500.02, 0.000, 0.000, 0.000, 02:35:46.574
63, 29519.17, 8529.16, -187500.02, -187500.02, -187500.02, -187500.02, -187500.02, -187500.02, 0.000, 0.000, 0.000, 02:35:46.574
64, 29506.45, 8517.31, -187500.02, -187500.02, -187500.02, -187500.02, -187500.02, -187500.02, 0.000, 0.000, 0.000, 02:35:46.574
65, 29464.61, 8487.72, -187500.02, -187500.02, -187500.02, -187500.02, -187500.02, -187500.02, 0.000, 0.000, 0.000, 02:35:46.574
66, 29492.50, 8518.99, -187500.02, -187500.02, -187500.02, -187500.02, -187500.02, -187500.02, 0.000, 0.000, 0.000, 02:35:46.574
67, 29544.65, 8576.61, -187500.02, -187500.02, -187500.02, -187500.02, -187500.02, -187500.02, 0.208, 0.994, -0.090, 02:35:46.575
68, 29549.83, 8577.42, -187500.02, -187500.02, -187500.02, -187500.02, -187500.02, -187500.02, 0.000, 0.000, 0.000, 02:35:46.575
69, 29508.04, 8545.36, -187500.02, -187500.02, -187500.02, -187500.02, -187500.02, -187500.02, 0.000, 0.000, 0.000, 02:35:46.575
70, 29501.75, 8522.65, -187500.02, -187500.02, -187500.02, -187500.02, -187500.02, -187500.02, 0.000, 0.000, 0.000, 02:35:46.575
71, 29533.56, 8548.58, -187500.02, -187500.02, -187500.02, -187500.02, -187500.02, -187500.02, 0.000, 0.000, 0.000, 02:35:46.575
72, 29520.13, 8537.56, -187500.02, -187500.02, -187500.02, -187500.02, -187500.02, -187500.02, 0.000, 0.000, 0.000, 02:35:46.575
73, 29487.96, 8515.19, -187500.02, -187500.02, -187500.02, -187500.02, -187500.02, -187500.02, 0.000, 0.000, 0.000, 02:35:46.575
74, 29484.43, 8500.93, -187500.02, -187500.02, -187500.02, -187500.02, -187500.02, -187500.02, 0.000, 0.000, 0.000, 02:35:46.575
75, 29524.44, 8535.17, -187500.02, -187500.02, -187500.02, -187500.02, -187500.02, -187500.02, 0.000, 0.000, 0.000, 02:35:46.575
76, 29520.98, 8546.08, -187500.02, -187500.02, -187500.02, -187500.02, -187500.02, -187500.02, 0.000, 0.000, 0.000, 02:35:46.576
77, 29495.23, 8518.05, -187500.02, -187500.02, -187500.02, -187500.02, -187500.02, -187500.02, 0.208, 0.994, -0.086, 02:35:46.576
78, 29475.67, 8491.79, -187500.02, -187500.02, -187500.02, -187500.02, -187500.02, -187500.02, 0.000, 0.000, 0.000, 02:35:46.576
79, 29514.54, 8511.16, -187500.02, -187500.02, -187500.02, -187500.02, -187500.02, -187500.02, 0.000, 0.000, 0.000, 02:35:46.576
80, 29521.02, 8543.62, -187500.02, -187500.02, -187500.02, -187500.02, -187500.02, -187500.02, 0.000, 0.000, 0.000, 02:35:46.576
81, 29498.29, 8526.27, -187500.02, -187500.02, -187500.02, -187500.02, -187500.02, -187500.02, 0.000, 0.000, 0.000, 02:35:46.576
82, 29477.93, 8494.74, -187500.02, -187500.02, -187500.02, -187500.02, -187500.02, -187500.02, 0.000, 0.000, 0.000, 02:35:46.576
83, 29511.63, 8521.63, -187500.02, -187500.02, -187500.02, -187500.02, -187500.02, -187500.02, 0.000, 0.000, 0.000, 02:35:46.576
84, 29525.58, 8538.79, -187500.02, -187500.02, -187500.02, -187500.02, -187500.02, -187500.02, 0.000, 0.000, 0.000, 02:35:46.576
85, 29511.07, 8533.18, -187500.02, -187500.02, -187500.02, -187500.02, -187500.02, -187500.02, 0.000, 0.000, 0.000, 02:35:46.577
86, 29475.78, 8489.73, -187500.02, -187500.02, -187500.02, -187500.02, -187500.02, -187500.02, 0.210, 0.994, -0.090, 02:35:46.577
87, 29491.99, 8500.73, -187500.02, -187500.02, -187500.02, -187500.02, -187500.02, -187500.02, 0.000, 0.000, 0.000, 02:35:46.577
88, 29520.66, 8520.02, -187500.02, -187500.02, -187500.02, -187500.02, -187500.02, -187500.02, 0.000, 0.000, 0.000, 02:35:46.577
89, 29519.77, 8526.43, -187500.02, -187500.02, -187500.02, -187500.02, -187500.02, -187500.02, 0.000, 0.000, 0.000, 02:35:46.577
90, 29488.46, 8495.23, -187500.02, -187500.02, -187500.02, -187500.02, -187500.02, -187500.02, 0.000, 0.000, 0.000, 02:35:46.577
91, 29494.87, 8507.32, -187500.02, -187500.02, -187500.02, -187500.02, -187500.02, -187500.02, 0.000, 0.000, 0.000, 02:35:46.577
92, 29516.51, 8517.04, -187500.02, -187500.02, -187500.02, -187500.02, -187500.02, -187500.02, 0.000, 0.000, 0.000, 02:35:46.577
93, 29506.94, 8517.56, -187500.02, -187500.02, -187500.02, -187500.02, -187500.02, -187500.02, 0.000, 0.000, 0.000, 02:35:46.578
94, 29477.66, 8505.87, -187500.02, -187500.02, -187500.02, -187500.02, -187500.02, -187500.02, 0.000, 0.000, 0.000, 02:35:46.578
95, 29481.06, 8487.76, -187500.02, -187500.02, -187500.02, -187500.02, -187500.02, -187500.02, 0.000, 0.000, 0.000, 02:35:46.578
96, 29519.57, 8535.13, -187500.02, -187500.02, -187500.02, -187500.02, -187500.02, -187500.02, 0.210, 0.994, -0.088, 02:35:46.578
97, 29508.57, 8543.95, -187500.02, -187500.02, -187500.02, -187500.02, -187500.02, -187500.02, 0.000, 0.000, 0.000, 02:35:46.578
98, 29489.26, 8520.02, -187500.02, -187500.02, -187500.02, -187500.02, -187500.02, -187500.02, 0.000, 0.000, 0.000, 02:35:46.578
99, 29479.85, 8498.38, -187500.02, -187500.02, -187500.02, -187500.02, -187500.02, -187500.02, 0.000, 0.000, 0.000, 02:35:46.578
100, 29509.98, 8520.37, -187500.02, -187500.02, -187500.02, -187500.02, -187500.02, -187500.02, 0.000, 0.000, 0.000, 02:35:46.578
101, 29517.73, 8526.65, -187500.02, -187500.02, -187500.02, -187500.02, -187500.02, -187500.02, 0.000, 0.000, 0.000, 02:35:46.579
102, 29502.58, 8502.89, -187500.02, -187500.02, -187500.02, -187500.02, -187500.02, -187500.02, 0.000, 0.000, 0.000, 02:35:46.579
103, 29471.31, 8476.07, -187500.02, -187500.02, -187500.02, -187500.02, -187500.02, -187500.02, 0.000, 0.000, 0.000, 02:35:46.579
104, 29501.31, 8516.66, -187500.02, -187500.02, -187500.02, -187500.02, -187500.02, -187500.02, 0.000, 0.000, 0.000, 02:35:46.579
105, 29520.91, 8548.27, -187500.02, -187500.02, -187500.02, -187500.02, -187500.02, -187500.02, 0.000, 0.000, 0.000, 02:35:47.044
106, 29505.06, 8521.13, -187500.02, -187500.02, -187500.02, -187500.02, -187500.02, -187500.02, 0.204, 0.992, -0.088, 02:35:47.044
107, 29478.96, 8472.29, -187500.02, -187500.02, -187500.02, -187500.02, -187500.02, -187500.02, 0.000, 0.000, 0.000, 02:35:47.045
108, 29505.53, 8477.46, -187500.02, -187500.02, -187500.02, -187500.02, -187500.02, -187500.02, 0.000, 0.000, 0.000, 02:35:47.045
109, 29524.84, 8504.44, -187500.02, -187500.02, -187500.02, -187500.02, -187500.02, -187500.02, 0.000, 0.000, 0.000, 02:35:47.045
110, 29501.02, 8519.88, -187500.02, -187500.02, -187500.02, -187500.02, -187500.02, -187500.02, 0.000, 0.000, 0.000, 02:35:47.045
111, 29478.04, 8499.34, -187500.02, -187500.02, -187500.02, -187500.02, -187500.02, -187500.02, 0.000, 0.000, 0.000, 02:35:47.045
112, 29493.13, 8517.33, -187500.02, -187500.02, -187500.02, -187500.02, -187500.02, -187500.02, 0.000, 0.000, 0.000, 02:35:47.045
113, 29519.39, 8541.92, -187500.02, -187500.02, -187500.02, -187500.02, -187500.02, -187500.02, 0.000, 0.000, 0.000, 02:35:47.045
114, 29513.38, 8517.94, -187500.02, -187500.02, -187500.02, -187500.02, -187500.02, -187500.02, 0.000, 0.000, 0.000, 02:35:47.045
115, 29491.92, 8509.24, -187500.02, -187500.02, -187500.02, -187500.02, -187500.02, -187500.02, 0.000, 0.000, 0.000, 02:35:47.046
116, 29497.10, 8510.31, -187500.02, -187500.02, -187500.02, -187500.02, -187500.02, -187500.02, 0.204, 0.992, -0.090, 02:35:47.046
117, 29517.85, 8512.19, -187500.02, -187500.02, -187500.02, -187500.02, -187500.02, -187500.02, 0.000, 0.000, 0.000, 02:35:47.046
118, 29508.82, 8499.59, -187500.02, -187500.02, -187500.02, -187500.02, -187500.02, -187500.02, 0.000, 0.000, 0.000, 02:35:47.046
119, 29482.80, 8492.81, -187500.02, -187500.02, -187500.02, -187500.02, -187500.02, -187500.02, 0.000, 0.000, 0.000, 02:35:47.046
120, 29478.26, 8491.52, -187500.02, -187500.02, -187500.02, -187500.02, -187500.02, -187500.02, 0.000, 0.000, 0.000, 02:35:47.046
121, 29528.20, 8532.51, -187500.02, -187500.02, -187500.02, -187500.02, -187500.02, -187500.02, 0.000, 0.000, 0.000, 02:35:47.047
122, 29528.24, 8512.57, -187500.02, -187500.02, -187500.02, -187500.02, -187500.02, -187500.02, 0.000, 0.000, 0.000, 02:35:47.047
123, 29516.17, 8506.87, -187500.02, -187500.02, -187500.02, -187500.02, -187500.02, -187500.02, 0.000, 0.000, 0.000, 02:35:47.047
124, 29492.10, 8481.88, -187500.02, -187500.02, -187500.02, -187500.02, -187500.02, -187500.02, 0.000, 0.000, 0.000, 02:35:47.047
125, 29517.33, 8498.60, -187500.02, -187500.02, -187500.02, -187500.02, -187500.02, -187500.02, 0.000, 0.000, 0.000, 02:35:47.047
126, 29523.86, 8516.44, -187500.02, -187500.02, -187500.02, -187500.02, -187500.02, -187500.02, 0.204, 0.994, -0.088, 02:35:47.048
127, 29498.96, 8519.70, -187500.02, -187500.02, -187500.02, -187500.02, -187500.02, -187500.02, 0.000, 0.000, 0.000, 02:35:47.048
128, 29471.51, 8467.53, -187500.02, -187500.02, -187500.02, -187500.02, -187500.02, -187500.02, 0.000, 0.000, 0.000, 02:35:47.048
129, 29511.70, 8494.56, -187500.02, -187500.02, -187500.02, -187500.02, -187500.02, -187500.02, 0.000, 0.000, 0.000, 02:35:47.048
130, 29526.45, 8516.26, -187500.02, -187500.02, -187500.02, -187500.02, -187500.02, -187500.02, 0.000, 0.000, 0.000, 02:35:47.048
131, 29501.28, 8490.87, -187500.02, -187500.02, -187500.02, -187500.02, -187500.02, -187500.02, 0.000, 0.000, 0.000, 02:35:47.048
132, 29472.41, 8483.89, -187500.02, -187500.02, -187500.02, -187500.02, -187500.02, -187500.02, 0.000, 0.000, 0.000, 02:35:47.048
133, 29498.87, 8499.61, -187500.02, -187500.02, -187500.02, -187500.02, -187500.02, -187500.02, 0.000, 0.000, 0.000, 02:35:47.049
134, 29524.60, 8519.28, -187500.02, -187500.02, -187500.02, -187500.02, -187500.02, -187500.02, 0.000, 0.000, 0.000, 02:35:47.049
135, 29504.55, 8499.34, -187500.02, -187500.02, -187500.02, -187500.02, -187500.02, -187500.02, 0.000, 0.000, 0.000, 02:35:47.049
136, 29481.99, 8479.54, -187500.02, -187500.02, -187500.02, -187500.02, -187500.02, -187500.02, 0.206, 0.994, -0.090, 02:35:47.049
137, 29494.00, 8488.61, -187500.02, -187500.02, -187500.02, -187500.02, -187500.02, -187500.02, 0.000, 0.000, 0.000, 02:35:47.049
138, 29516.84, 8508.71, -187500.02, -187500.02, -187500.02, -187500.02, -187500.02, -187500.02, 0.000, 0.000, 0.000, 02:35:47.049
139, 29500.52, 8491.65, -187500.02, -187500.02, -187500.02, -187500.02, -187500.02, -187500.02, 0.000, 0.000, 0.000, 02:35:47.049
140, 29470.55, 8474.46, -187500.02, -187500.02, -187500.02, -187500.02, -187500.02, -187500.02, 0.000, 0.000, 0.000, 02:35:47.049
141, 29467.98, 8473.61, -187500.02, -187500.02, -187500.02, -187500.02, -187500.02, -187500.02, 0.000, 0.000, 0.000, 02:35:47.050
142, 29504.37, 8491.52, -187500.02, -187500.02, -187500.02, -187500.02, -187500.02, -187500.02, 0.000, 0.000, 0.000, 02:35:47.050
143, 29505.04, 8489.71, -187500.02, -187500.02, -187500.02, -187500.02, -187500.02, -187500.02, 0.000, 0.000, 0.000, 02:35:47.050
144, 29488.41, 8486.04, -187500.02, -187500.02, -187500.02, -187500.02, -187500.02, -187500.02, 0.000, 0.000, 0.000, 02:35:47.050
145, 29475.83, 8464.14, -187500.02, -187500.02, -187500.02, -187500.02, -187500.02, -187500.02, 0.206, 0.994, -0.084, 02:35:47.050
146, 29508.32, 8490.38, -187500.02, -187500.02, -187500.02, -187500.02, -187500.02, -187500.02, 0.000, 0.000, 0.000, 02:35:47.050
147, 29515.10, 8503.23, -187500.02, -187500.02, -187500.02, -187500.02, -187500.02, -187500.02, 0.000, 0.000, 0.000, 02:35:47.050
148, 29478.13, 8492.52, -187500.02, -187500.02, -187500.02, -187500.02, -187500.02, -187500.02, 0.000, 0.000, 0.000, 02:35:47.051
149, 29461.23, 8470.62, -187500.02, -187500.02, -187500.02, -187500.02, -187500.02, -187500.02, 0.000, 0.000, 0.000, 02:35:47.051
150, 29501.08, 8496.08, -187500.02, -187500.02, -187500.02, -187500.02, -187500.02, -187500.02, 0.000, 0.000, 0.000, 02:35:47.051
151, 29514.11, 8501.26, -187500.02, -187500.02, -187500.02, -187500.02, -187500.02, -187500.02, 0.000, 0.000, 0.000, 02:35:47.051
152, 29487.63, 8464.78, -187500.02, -187500.02, -187500.02, -187500.02, -187500.02, -187500.02, 0.000, 0.000, 0.000, 02:35:47.051
153, 29455.44, 8440.89, -187500.02, -187500.02, -187500.02, -187500.02, -187500.02, -187500.02, 0.000, 0.000, 0.000, 02:35:47.052
154, 29499.12, 8472.00, -187500.02, -187500.02, -187500.02, -187500.02, -187500.02, -187500.02, 0.000, 0.000, 0.000, 02:35:47.052
155, 29546.72, 8525.65, -187500.02, -187500.02, -187500.02, -187500.02, -187500.02, -187500.02, 0.212, 0.996, -0.084, 02:35:47.052
156, 29535.66, 8529.98, -187500.02, -187500.02, -187500.02, -187500.02, -187500.02, -187500.02, 0.000, 0.000, 0.000, 02:35:47.052
157, 29495.56, 8490.18, -187500.02, -187500.02, -187500.02, -187500.02, -187500.02, -187500.02, 0.000, 0.000, 0.000, 02:35:47.052
158, 29501.35, 8473.12, -187500.02, -187500.02, -187500.02, -187500.02, -187500.02, -187500.02, 0.000, 0.000, 0.000, 02:35:47.052
159, 29520.26, 8499.27, -187500.02, -187500.02, -187500.02, -187500.02, -187500.02, -187500.02, 0.000, 0.000, 0.000, 02:35:47.052
160, 29495.79, 8502.80, -187500.02, -187500.02, -187500.02, -187500.02, -187500.02, -187500.02, 0.000, 0.000, 0.000, 02:35:47.052
161, 29471.56, 8463.29, -187500.02, -187500.02, -187500.02, -187500.02, -187500.02, -187500.02, 0.000, 0.000, 0.000, 02:35:47.052
162, 29489.26, 8470.26, -187500.02, -187500.02, -187500.02, -187500.02, -187500.02, -187500.02, 0.000, 0.000, 0.000, 02:35:47.053
163, 29512.86, 8478.71, -187500.02, -187500.02, -187500.02, -187500.02, -187500.02, -187500.02, 0.000, 0.000, 0.000, 02:35:47.053
164, 29500.59, 8470.84, -187500.02, -187500.02, -187500.02, -187500.02, -187500.02, -187500.02, 0.000, 0.000, 0.000, 02:35:47.053
165, 29480.01, 8472.00, -187500.02, -187500.02, -187500.02, -187500.02, -187500.02, -187500.02, 0.212, 0.994, -0.090, 02:35:47.053
166, 29484.86, 8467.00, -187500.02, -187500.02, -187500.02, -187500.02, -187500.02, -187500.02, 0.000, 0.000, 0.000, 02:35:47.053
167, 29512.26, 8491.29, -187500.02, -187500.02, -187500.02, -187500.02, -187500.02, -187500.02, 0.000, 0.000, 0.000, 02:35:47.054
168, 29507.95, 8508.28, -187500.02, -187500.02, -187500.02, -187500.02, -187500.02, -187500.02, 0.000, 0.000, 0.000, 02:35:47.054
169, 29488.41, 8478.04, -187500.02, -187500.02, -187500.02, -187500.02, -187500.02, -187500.02, 0.000, 0.000, 0.000, 02:35:47.054
170, 29486.33, 8467.24, -187500.02, -187500.02, -187500.02, -187500.02, -187500.02, -187500.02, 0.000, 0.000, 0.000, 02:35:47.054
171, 29524.31, 8501.24, -187500.02, -187500.02, -187500.02, -187500.02, -187500.02, -187500.02, 0.000, 0.000, 0.000, 02:35:47.054
172, 29510.76, 8485.82, -187500.02, -187500.02, -187500.02, -187500.02, -187500.02, -187500.02, 0.000, 0.000, 0.000, 02:35:47.054
173, 29481.82, 8451.13, -187500.02, -187500.02, -187500.02, -187500.02, -187500.02, -187500.02, 0.000, 0.000, 0.000, 02:35:47.054
174, 29481.32, 8446.57, -187500.02, -187500.02, -187500.02, -187500.02, -187500.02, -187500.02, 0.000, 0.000, 0.000, 02:35:47.054
175, 29511.39, 8484.54, -187500.02, -187500.02, -187500.02, -187500.02, -187500.02, -187500.02, 0.208, 0.998, -0.092, 02:35:47.055
176, 29512.53, 8489.66, -187500.02, -187500.02, -187500.02, -187500.02, -187500.02, -187500.02, 0.000, 0.000, 0.000, 02:35:47.055
177, 29495.43, 8469.66, -187500.02, -187500.02, -187500.02, -187500.02, -187500.02, -187500.02, 0.000, 0.000, 0.000, 02:35:47.055
178, 29472.25, 8427.66, -187500.02, -187500.02, -187500.02, -187500.02, -187500.02, -187500.02, 0.000, 0.000, 0.000, 02:35:47.055
179, 29490.33, 8475.20, -187500.02, -187500.02, -187500.02, -187500.02, -187500.02, -187500.02, 0.000, 0.000, 0.000, 02:35:47.055
180, 29512.77, 8487.52, -187500.02, -187500.02, -187500.02, -187500.02, -187500.02, -187500.02, 0.000, 0.000, 0.000, 02:35:47.055
181, 29484.39, 8471.49, -187500.02, -187500.02, -187500.02, -187500.02, -187500.02, -187500.02, 0.000, 0.000, 0.000, 02:35:47.055
182, 29464.16, 8458.41, -187500.02, -187500.02, -187500.02, -187500.02, -187500.02, -187500.02, 0.000, 0.000, 0.000, 02:35:47.055
183, 29488.86, 8457.30, -187500.02, -187500.02, -187500.02, -187500.02, -187500.02, -187500.02, 0.000, 0.000, 0.000, 02:35:47.056
184, 29512.39, 8469.25, -187500.02, -187500.02, -187500.02, -187500.02, -187500.02, -187500.02, 0.000, 0.000, 0.000, 02:35:47.056
185, 29490.64, 8463.42, -187500.02, -187500.02, -187500.02, -187500.02, -187500.02, -187500.02, 0.210, 1.000, -0.090, 02:35:47.056
186, 29456.16, 8437.69, -187500.02, -187500.02, -187500.02, -187500.02, -187500.02, -187500.02, 0.000, 0.000, 0.000, 02:35:47.056
187, 29468.07, 8446.21, -187500.02, -187500.02, -187500.02, -187500.02, -187500.02, -187500.02, 0.000, 0.000, 0.000, 02:35:47.056
188, 29506.11, 8489.84, -187500.02, -187500.02, -187500.02, -187500.02, -187500.02, -187500.02, 0.000, 0.000, 0.000, 02:35:47.056
189, 29497.75, 8492.08, -187500.02, -187500.02, -187500.02, -187500.02, -187500.02, -187500.02, 0.000, 0.000, 0.000, 02:35:47.056
190, 29476.38, 8466.53, -187500.02, -187500.02, -187500.02, -187500.02, -187500.02, -187500.02, 0.000, 0.000, 0.000, 02:35:47.057
191, 29477.72, 8457.23, -187500.02, -187500.02, -187500.02, -187500.02, -187500.02, -187500.02, 0.000, 0.000, 0.000, 02:35:47.057
192, 29514.61, 8487.34, -187500.02, -187500.02, -187500.02, -187500.02, -187500.02, -187500.02, 0.000, 0.000, 0.000, 02:35:47.057
193, 29512.86, 8495.96, -187500.02, -187500.02, -187500.02, -187500.02, -187500.02, -187500.02, 0.000, 0.000, 0.000, 02:35:47.057
194, 29479.96, 8452.60, -187500.02, -187500.02, -187500.02, -187500.02, -187500.02, -187500.02, 0.000, 0.000, 0.000, 02:35:47.057
195, 29465.25, 8437.65, -187500.02, -187500.02, -187500.02, -187500.02, -187500.02, -187500.02, 0.208, 0.998, -0.094, 02:35:47.057
196, 29499.70, 8476.81, -187500.02, -187500.02, -187500.02, -187500.02, -187500.02, -187500.02, 0.000, 0.000, 0.000, 02:35:47.057
197, 29496.39, 8460.85, -187500.02, -187500.02, -187500.02, -187500.02, -187500.02, -187500.02, 0.000, 0.000, 0.000, 02:35:47.057
198, 29470.15, 8449.72, -187500.02, -187500.02, -187500.02, -187500.02, -187500.02, -187500.02, 0.000, 0.000, 0.000, 02:35:47.058
199, 29462.86, 8441.49, -187500.02, -187500.02, -187500.02, -187500.02, -187500.02, -187500.02, 0.000, 0.000, 0.000, 02:35:47.058
200, 29493.10, 8458.39, -187500.02, -187500.02, -187500.02, -187500.02, -187500.02, -187500.02, 0.000, 0.000, 0.000, 02:35:47.058
201, 29499.81, 8466.75, -187500.02, -187500.02, -187500.02, -187500.02, -187500.02, -187500.02, 0.000, 0.000, 0.000, 02:35:47.058
202, 29487.74, 8457.34, -187500.02, -187500.02, -187500.02, -187500.02, -187500.02, -187500.02, 0.000, 0.000, 0.000, 02:35:47.058
203, 29453.27, 8419.90, -187500.02, -187500.02, -187500.02, -187500.02, -187500.02, -187500.02, 0.000, 0.000, 0.000, 02:35:47.058
204, 29473.59, 8438.32, -187500.02, -187500.02, -187500.02, -187500.02, -187500.02, -187500.02, 0.214, 0.996, -0.086, 02:35:47.058
205, 29492.88, 8474.31, -187500.02, -187500.02, -187500.02, -187500.02, -187500.02, -187500.02, 0.000, 0.000, 0.000, 02:35:47.058
206, 29486.62, 8466.44, -187500.02, -187500.02, -187500.02, -187500.02, -187500.02, -187500.02, 0.000, 0.000, 0.000, 02:35:47.058
207, 29464.49, 8448.11, -187500.02, -187500.02, -187500.02, -187500.02, -187500.02, -187500.02, 0.000, 0.000, 0.000, 02:35:47.058
208, 29483.47, 8455.42, -187500.02, -187500.02, -187500.02, -187500.02, -187500.02, -187500.02, 0.000, 0.000, 0.000, 02:35:47.059
209, 29505.08, 8463.73, -187500.02, -187500.02, -187500.02, -187500.02, -187500.02, -187500.02, 0.000, 0.000, 0.000, 02:35:47.059
210, 29497.17, 8448.24, -187500.02, -187500.02, -187500.02, -187500.02, -187500.02, -187500.02, 0.000, 0.000, 0.000, 02:35:47.059
211, 29470.84, 8440.87, -187500.02, -187500.02, -187500.02, -187500.02, -187500.02, -187500.02, 0.000, 0.000, 0.000, 02:35:47.059
212, 29480.12, 8436.82, -187500.02, -187500.02, -187500.02, -187500.02, -187500.02, -187500.02, 0.000, 0.000, 0.000, 02:35:47.059
213, 29516.91, 8476.83, -187500.02, -187500.02, -187500.02, -187500.02, -187500.02, -187500.02, 0.000, 0.000, 0.000, 02:35:47.059
214, 29496.84, 8463.44, -187500.02, -187500.02, -187500.02, -187500.02, -187500.02, -187500.02, 0.208, 0.996, -0.086, 02:35:47.059
215, 29474.89, 8442.19, -187500.02, -187500.02, -187500.02, -187500.02, -187500.02, -187500.02, 0.000, 0.000, 0.000, 02:35:47.059
216, 29478.55, 8437.63, -187500.02, -187500.02, -187500.02, -187500.02, -187500.02, -187500.02, 0.000, 0.000, 0.000, 02:35:47.059
217, 29509.08, 8471.42, -187500.02, -187500.02, -187500.02, -187500.02, -187500.02, -187500.02, 0.000, 0.000, 0.000, 02:35:47.060
218, 29506.34, 8479.87, -187500.02, -187500.02, -187500.02, -187500.02, -187500.02, -187500.02, 0.000, 0.000, 0.000, 02:35:47.060
219, 29474.93, 8448.00, -187500.02, -187500.02, -187500.02, -187500.02, -187500.02, -187500.02, 0.000, 0.000, 0.000, 02:35:47.060
220, 29463.29, 8435.59, -187500.02, -187500.02, -187500.02, -187500.02, -187500.02, -187500.02, 0.000, 0.000, 0.000, 02:35:47.060
221, 29510.36, 8459.67, -187500.02, -187500.02, -187500.02, -187500.02, -187500.02, -187500.02, 0.000, 0.000, 0.000, 02:35:47.060
222, 29520.33, 8455.53, -187500.02, -187500.02, -187500.02, -187500.02, -187500.02, -187500.02, 0.000, 0.000, 0.000, 02:35:47.060
223, 29491.58, 8443.13, -187500.02, -187500.02, -187500.02, -187500.02, -187500.02, -187500.02, 0.000, 0.000, 0.000, 02:35:47.060
224, 29457.68, 8416.57, -187500.02, -187500.02, -187500.02, -187500.02, -187500.02, -187500.02, 0.212, 0.994, -0.080, 02:35:47.060
225, 29484.05, 8434.14, -187500.02, -187500.02, -187500.02, -187500.02, -187500.02, -187500.02, 0.000, 0.000, 0.000, 02:35:47.526
226, 29499.25, 8449.61, -187500.02, -187500.02, -187500.02, -187500.02, -187500.02, -187500.02, 0.000, 0.000, 0.000, 02:35:47.526
227, 29488.61, 8445.76, -187500.02, -187500.02, -187500.02, -187500.02, -187500.02, -187500.02, 0.000, 0.000, 0.000, 02:35:47.526
228, 29464.00, 8441.54, -187500.02, -187500.02, -187500.02, -187500.02, -187500.02, -187500.02, 0.000, 0.000, 0.000, 02:35:47.526
229, 29489.62, 8443.68, -187500.02, -187500.02, -187500.02, -187500.02, -187500.02, -187500.02, 0.000, 0.000, 0.000, 02:35:47.526
230, 29499.18, 8442.99, -187500.02, -187500.02, -187500.02, -187500.02, -187500.02, -187500.02, 0.000, 0.000, 0.000, 02:35:47.526
231, 29486.78, 8457.48, -187500.02, -187500.02, -187500.02, -187500.02, -187500.02, -187500.02, 0.000, 0.000, 0.000, 02:35:47.526
232, 29480.94, 8450.75, -187500.02, -187500.02, -187500.02, -187500.02, -187500.02, -187500.02, 0.000, 0.000, 0.000, 02:35:47.526
233, 29489.62, 8447.71, -187500.02, -187500.02, -187500.02, -187500.02, -187500.02, -187500.02, 0.000, 0.000, 0.000, 02:35:47.526
234, 29510.74, 8468.16, -187500.02, -187500.02, -187500.02, -187500.02, -187500.02, -187500.02, 0.212, 0.992, -0.090, 02:35:47.526
235, 29502.63, 8451.64, -187500.02, -187500.02, -187500.02, -187500.02, -187500.02, -187500.02, 0.000, 0.000, 0.000, 02:35:47.527
236, 29477.12, 8415.39, -187500.02, -187500.02, -187500.02, -187500.02, -187500.02, -187500.02, 0.000, 0.000, 0.000, 02:35:47.527
237, 29477.52, 8406.11, -187500.02, -187500.02, -187500.02, -187500.02, -187500.02, -187500.02, 0.000, 0.000, 0.000, 02:35:47.527
238, 29495.74, 8447.82, -187500.02, -187500.02, -187500.02, -187500.02, -187500.02, -187500.02, 0.000, 0.000, 0.000, 02:35:47.527
239, 29501.48, 8466.62, -187500.02, -187500.02, -187500.02, -187500.02, -187500.02, -187500.02, 0.000, 0.000, 0.000, 02:35:47.527
240, 29490.64, 8449.61, -187500.02, -187500.02, -187500.02, -187500.02, -187500.02, -187500.02, 0.000, 0.000, 0.000, 02:35:47.527
241, 29499.72, 8443.62, -187500.02, -187500.02, -187500.02, -187500.02, -187500.02, -187500.02, 0.000, 0.000, 0.000, 02:35:47.527
242, 29520.98, 8451.24, -187500.02, -187500.02, -187500.02, -187500.02, -187500.02, -187500.02, 0.000, 0.000, 0.000, 02:35:47.527
243, 29511.68, 8435.41, -187500.02, -187500.02, -187500.02, -187500.02, -187500.02, -187500.02, 0.000, 0.000, 0.000, 02:35:47.528
244, 29488.41, 8450.59, -187500.02, -187500.02, -187500.02, -187500.02, -187500.02, -187500.02, 0.212, 0.992, -0.090, 02:35:47.528
245, 29465.72, 8429.33, -187500.02, -187500.02, -187500.02, -187500.02, -187500.02, -187500.02, 0.000, 0.000, 0.000, 02:35:47.528
246, 29495.76, 8433.83, -187500.02, -187500.02, -187500.02, -187500.02, -187500.02, -187500.02, 0.000, 0.000, 0.000, 02:35:47.528
247, 29512.17, 8446.75, -187500.02, -187500.02, -187500.02, -187500.02, -187500.02, -187500.02, 0.000, 0.000, 0.000, 02:35:47.528
248, 29507.61, 8468.99, -187500.02, -187500.02, -187500.02, -187500.02, -187500.02, -187500.02, 0.000, 0.000, 0.000, 02:35:47.528
249, 29470.06, 8427.19, -187500.02, -187500.02, -187500.02, -187500.02, -187500.02, -187500.02, 0.000, 0.000, 0.000, 02:35:47.528
250, 29498.18, 8452.60, -187500.02, -187500.02, -187500.02, -187500.02, -187500.02, -187500.02, 0.000, 0.000, 0.000, 02:35:47.528
251, 29517.98, 8464.54, -187500.02, -187500.02, -187500.02, -187500.02, -187500.02, -187500.02, 0.000, 0.000, 0.000, 02:35:47.529
252, 29497.95, 8444.40, -187500.02, -187500.02, -187500.02, -187500.02, -187500.02, -187500.02, 0.000, 0.000, 0.000, 02:35:47.529
253, 29472.27, 8418.45, -187500.02, -187500.02, -187500.02, -187500.02, -187500.02, -187500.02, 0.000, 0.000, 0.000, 02:35:47.529
254, 29499.16, 8431.77, -187500.02, -187500.02, -187500.02, -187500.02, -187500.02, -187500.02, 0.210, 0.994, -0.086, 02:35:47.529
255, 29511.01, 8447.75, -187500.02, -187500.02, -187500.02, -187500.02, -187500.02, -187500.02, 0.000, 0.000, 0.000, 02:35:47.529
0, 29504.03, 8449.38, -187500.02, -187500.02, -187500.02, -187500.02, -187500.02, -187500.02, 0.000, 0.000, 0.000, 02:35:47.529
1, 29476.56, 8414.07, -187500.02, -187500.02, -187500.02, -187500.02, -187500.02, -187500.02, 0.000, 0.000, 0.000, 02:35:47.530
2, 29491.07, 8422.23, -187500.02, -187500.02, -187500.02, -187500.02, -187500.02, -187500.02, 0.000, 0.000, 0.000, 02:35:47.530
3, 29511.66, 8453.16, -187500.02, -187500.02, -187500.02, -187500.02, -187500.02, -187500.02, 0.000, 0.000, 0.000, 02:35:47.530
4, 29518.90, 8451.24, -187500.02, -187500.02, -187500.02, -187500.02, -187500.02, -187500.02, 0.000, 0.000, 0.000, 02:35:47.530
5, 29496.23, 8453.65, -187500.02, -187500.02, -187500.02, -187500.02, -187500.02, -187500.02, 0.000, 0.000, 0.000, 02:35:47.530
6, 29489.08, 8432.89, -187500.02, -187500.02, -187500.02, -187500.02, -187500.02, -187500.02, 0.000, 0.000, 0.000, 02:35:47.530
7, 29507.41, 8448.18, -187500.02, -187500.02, -187500.02, -187500.02, -187500.02, -187500.02, 0.000, 0.000, 0.000, 02:35:47.531
8, 29495.23, 8445.67, -187500.02, -187500.02, -187500.02, -187500.02, -187500.02, -187500.02, 0.214, 0.996, -0.082, 02:35:47.531
9, 29466.73, 8440.89, -187500.02, -187500.02, -187500.02, -187500.02, -187500.02, -187500.02, 0.000, 0.000, 0.000, 02:35:47.531
10, 29474.75, 8437.78, -187500.02, -187500.02, -187500.02, -187500.02, -187500.02, -187500.02, 0.000, 0.000, 0.000, 02:35:47.531
11, 29525.18, 8452.16, -187500.02, -187500.02, -187500.02, -187500.02, -187500.02, -187500.02, 0.000, 0.000, 0.000, 02:35:47.531
12, 29510.40, 8442.79, -187500.02, -187500.02, -187500.02, -187500.02, -187500.02, -187500.02, 0.000, 0.000, 0.000, 02:35:47.531
13, 29492.81, 8436.20, -187500.02, -187500.02, -187500.02, -187500.02, -187500.02, -187500.02, 0.000, 0.000, 0.000, 02:35:47.531
14, 29482.49, 8449.16, -187500.02, -187500.02, -187500.02, -187500.02, -187500.02, -187500.02, 0.000, 0.000, 0.000, 02:35:47.532
15, 29514.83, 8478.71, -187500.02, -187500.02, -187500.02, -187500.02, -187500.02, -187500.02, 0.000, 0.000, 0.000, 02:35:47.532
16, 29522.07, 8487.20, -187500.02, -187500.02, -187500.02, -187500.02, -187500.02, -187500.02, 0.000, 0.000, 0.000, 02:35:47.532
17, 29518.34, 8488.95, -187500.02, -187500.02, -187500.02, -187500.02, -187500.02, -187500.02, 0.210, 0.992, -0.090, 02:35:47.532
18, 29489.68, 8464.02, -187500.02, -187500.02, -187500.02, -187500.02, -187500.02, -187500.02, 0.000, 0.000, 0.000, 02:35:47.532
19, 29510.07, 8474.73, -187500.02, -187500.02, -187500.02, -187500.02, -187500.02, -187500.02, 0.000, 0.000, 0.000, 02:35:47.532
20, 29530.32, 8511.52, -187500.02, -187500.02, -187500.02, -187500.02, -187500.02, -187500.02, 0.000, 0.000, 0.000, 02:35:47.532
21, 29515.50, 8510.69, -187500.02, -187500.02, -187500.02, -187500.02, -187500.02, -187500.02, 0.000, 0.000, 0.000, 02:35:47.533
22, 29483.69, 8478.11, -187500.02, -187500.02, -187500.02, -187500.02, -187500.02, -187500.02, 0.000, 0.000, 0.000, 02:35:47.533
23, 29505.60, 8489.37, -187500.02, -187500.02, -187500.02, -187500.02, -187500.02, -187500.02, 0.000, 0.000, 0.000, 02:35:47.533
24, 29531.55, 8500.01, -187500.02, -187500.02, -187500.02, -187500.02, -187500.02, -187500.02, 0.000, 0.000, 0.000, 02:35:47.534
25, 29523.88, 8490.60, -187500.02, -187500.02, -187500.02, -187500.02, -187500.02, -187500.02, 0.000, 0.000, 0.000, 02:35:47.534
26, 29493.75, 8478.98, -187500.02, -187500.02, -187500.02, -187500.02, -187500.02, -187500.02, 0.000, 0.000, 0.000, 02:35:47.534
27, 29500.90, 8495.41, -187500.02, -187500.02, -187500.02, -187500.02, -187500.02, -187500.02, 0.208, 0.986, -0.084, 02:35:47.534
28, 29535.62, 8529.25, -187500.02, -187500.02, -187500.02, -187500.02, -187500.02, -187500.02, 0.000, 0.000, 0.000, 02:35:47.534
29, 29527.23, 8533.76, -187500.02, -187500.02, -187500.02, -187500.02, -187500.02, -187500.02, 0.000, 0.000, 0.000, 02:35:47.534
30, 29493.21, 8488.97, -187500.02, -187500.02, -187500.02, -187500.02, -187500.02, -187500.02, 0.000, 0.000, 0.000, 02:35:47.534
31, 29489.26, 8467.87, -187500.02, -187500.02, -187500.02, -187500.02, -187500.02, -187500.02, 0.000, 0.000, 0.000, 02:35:47.535
32, 29520.78, 8512.62, -187500.02, -187500.02, -187500.02, -187500.02, -187500.02, -187500.02, 0.000, 0.000, 0.000, 02:35:47.535
33, 29512.97, 8502.18, -187500.02, -187500.02, -187500.02, -187500.02, -187500.02, -187500.02, 0.000, 0.000, 0.000, 02:35:47.535
34, 29485.48, 8467.09, -187500.02, -187500.02, -187500.02, -187500.02, -187500.02, -187500.02, 0.000, 0.000, 0.000, 02:35:47.535
35, 29477.95, 8459.75, -187500.02, -187500.02, -187500.02, -187500.02, -187500.02, -187500.02, 0.000, 0.000, 0.000, 02:35:47.535
36, 29503.14, 8498.31, -187500.02, -187500.02, -187500.02, -187500.02, -187500.02, -187500.02, 0.000, 0.000, 0.000, 02:35:47.535
37, 29505.69, 8530.50, -187500.02, -187500.02, -187500.02, -187500.02, -187500.02, -187500.02, 0.206, 0.984, -0.088, 02:35:47.535
38, 29485.48, 8508.48, -187500.02, -187500.02, -187500.02, -187500.02, -187500.02, -187500.02, 0.000, 0.000, 0.000, 02:35:47.535
39, 29484.19, 8498.22, -187500.02, -187500.02, -187500.02, -187500.02, -187500.02, -187500.02, 0.000, 0.000, 0.000, 02:35:47.536
40, 29503.92, 8521.63, -187500.02, -187500.02, -187500.02, -187500.02, -187500.02, -187500.02, 0.000, 0.000, 0.000, 02:35:47.536
41, 29527.88, 8536.60, -187500.02, -187500.02, -187500.02, -187500.02, -187500.02, -187500.02, 0.000, 0.000, 0.000, 02:35:47.536
42, 29514.99, 8517.00, -187500.02, -187500.02, -187500.02, -187500.02, -187500.02, -187500.02, 0.000, 0.000, 0.000, 02:35:47.536
43, 29471.51, 8476.63, -187500.02, -187500.02, -187500.02, -187500.02, -187500.02, -187500.02, 0.000, 0.000, 0.000, 02:35:47.536
44, 29500.75, 8490.96, -187500.02, -187500.02, -187500.02, -187500.02, -187500.02, -187500.02, 0.000, 0.000, 0.000, 02:35:47.536
45, 29527.82, 8522.83, -187500.02, -187500.02, -187500.02, -187500.02, -187500.02, -187500.02, 0.000, 0.000, 0.000, 02:35:47.536
46, 29502.89, 8513.06, -187500.02, -187500.02, -187500.02, -187500.02, -187500.02, -187500.02, 0.000, 0.000, 0.000, 02:35:47.537
47, 29474.37, 8497.98, -187500.02, -187500.02, -187500.02, -187500.02, -187500.02, -187500.02, 0.208, 0.990, -0.088, 02:35:47.537
48, 29510.36, 8525.38, -187500.02, -187500.02, -187500.02, -187500.02, -187500.02, -187500.02, 0.000, 0.000, 0.000, 02:35:47.537
49, 29526.29, 8539.44, -187500.02, -187500.02, -187500.02, -187500.02, -187500.02, -187500.02, 0.000, 0.000, 0.000, 02:35:47.537
50, 29492.84, 8503.90, -187500.02, -187500.02, -187500.02, -187500.02, -187500.02, -187500.02, 0.000, 0.000, 0.000, 02:35:47.537
51, 29484.23, 8473.34, -187500.02, -187500.02, -187500.02, -187500.02, -187500.02, -187500.02, 0.000, 0.000, 0.000, 02:35:47.537
52, 29480.65, 8466.75, -187500.02, -187500.02, -187500.02, -187500.02, -187500.02, -187500.02, 0.000, 0.000, 0.000, 02:35:47.537
53, 29504.57, 8541.52, -187500.02, -187500.02, -187500.02, -187500.02, -187500.02, -187500.02, 0.000, 0.000, 0.000, 02:35:47.538
54, 29494.80, 8535.64, -187500.02, -187500.02, -187500.02, -187500.02, -187500.02, -187500.02, 0.000, 0.000, 0.000, 02:35:47.538
55, 29476.34, 8513.20, -187500.02, -187500.02, -187500.02, -187500.02, -187500.02, -187500.02, 0.000, 0.000, 0.000, 02:35:47.538
56, 29477.88, 8503.36, -187500.02, -187500.02, -187500.02, -187500.02, -187500.02, -187500.02, 0.000, 0.000, 0.000, 02:35:47.538
57, 29498.69, 8516.82, -187500.02, -187500.02, -187500.02, -187500.02, -187500.02, -187500.02, 0.210, 0.992, -0.088, 02:35:47.538
58, 29501.55, 8514.96, -187500.02, -187500.02, -187500.02, -187500.02, -187500.02, -187500.02, 0.000, 0.000, 0.000, 02:35:47.538
59, 29474.53, 8491.29, -187500.02, -187500.02, -187500.02, -187500.02, -187500.02, -187500.02, 0.000, 0.000, 0.000, 02:35:47.539
60, 29463.58, 8499.63, -187500.02, -187500.02, -187500.02, -187500.02, -187500.02, -187500.02, 0.000, 0.000, 0.000, 02:35:47.539
61, 29502.87, 8531.35, -187500.02, -187500.02, -187500.02, -187500.02, -187500.02, -187500.02, 0.000, 0.000, 0.000, 02:35:47.539
62, 29508.28, 8520.55, -187500.02, -187500.02, -187500.02, -187500.02, -187500.02, -187500.02, 0.000, 0.000, 0.000, 02:35:47.539
63, 29488.43, 8489.15, -187500.02, -187500.02, -187500.02, -187500.02, -187500.02, -187500.02, 0.000, 0.000, 0.000, 02:35:47.539
64, 29484.03, 8503.94, -187500.02, -187500.02, -187500.02, -187500.02, -187500.02, -187500.02, 0.000, 0.000, 0.000, 02:35:47.539
65, 29528.93, 8538.34, -187500.02, -187500.02, -187500.02, -187500.02, -187500.02, -187500.02, 0.000, 0.000, 0.000, 02:35:47.539
66, 29524.69, 8525.98, -187500.02, -187500.02, -187500.02, -187500.02, -187500.02, -187500.02, 0.000, 0.000, 0.000, 02:35:47.539
67, 29503.54, 8513.02, -187500.02, -187500.02, -187500.02, -187500.02, -187500.02, -187500.02, 0.214, 0.990, -0.090, 02:35:47.540
68, 29473.37, 8471.65, -187500.02, -187500.02, -187500.02, -187500.02, -187500.02, -187500.02, 0.000, 0.000, 0.000, 02:35:47.540
69, 29492.14, 8516.48, -187500.02, -187500.02, -187500.02, -187500.02, -187500.02, -187500.02, 0.000, 0.000, 0.000, 02:35:47.540
70, 29520.28, 8533.65, -187500.02, -187500.02, -187500.02, -187500.02, -187500.02, -187500.02, 0.000, 0.000, 0.000, 02:35:47.540
71, 29503.36, 8511.30, -187500.02, -187500.02, -187500.02, -187500.02, -187500.02, -187500.02, 0.000, 0.000, 0.000, 02:35:47.540
72, 29476.38, 8496.08, -187500.02, -187500.02, -187500.02, -187500.02, -187500.02, -187500.02, 0.000, 0.000, 0.000, 02:35:47.540
73, 29491.74, 8505.38, -187500.02, -187500.02, -187500.02, -187500.02, -187500.02, -187500.02, 0.000, 0.000, 0.000, 02:35:47.540
74, 29504.93, 8520.17, -187500.02, -187500.02, -187500.02, -187500.02, -187500.02, -187500.02, 0.000, 0.000, 0.000, 02:35:47.541
75, 29499.76, 8500.73, -187500.02, -187500.02, -187500.02, -187500.02, -187500.02, -187500.02, 0.000, 0.000, 0.000, 02:35:47.541
76, 29477.86, 8480.32, -187500.02, -187500.02, -187500.02, -187500.02, -187500.02, -187500.02, 0.000, 0.000, 0.000, 02:35:47.541
77, 29488.97, 8494.69, -187500.02, -187500.02, -187500.02, -187500.02, -187500.02, -187500.02, 0.212, 0.990, -0.092, 02:35:47.541
78, 29521.33, 8523.97, -187500.02, -187500.02, -187500.02, -187500.02, -187500.02, -187500.02, 0.000, 0.000, 0.000, 02:35:47.541
79, 29509.02, 8510.00, -187500.02, -187500.02, -187500.02, -187500.02, -187500.02, -187500.02, 0.000, 0.000, 0.000, 02:35:47.541
80, 29484.95, 8496.41, -187500.02, -187500.02, -187500.02, -187500.02, -187500.02, -187500.02, 0.000, 0.000, 0.000, 02:35:47.541
81, 29485.19, 8485.15, -187500.02, -187500.02, -187500.02, -187500.02, -187500.02, -187500.02, 0.000, 0.000, 0.000, 02:35:47.541
82, 29509.42, 8512.80, -187500.02, -187500.02, -187500.02, -187500.02, -187500.02, -187500.02, 0.000, 0.000, 0.000, 02:35:47.542
83, 29496.39, 8516.86, -187500.02, -187500.02, -187500.02, -187500.02, -187500.02, -187500.02, 0.000, 0.000, 0.000, 02:35:47.542
84, 29482.46, 8511.41, -187500.02, -187500.02, -187500.02, -187500.02, -187500.02, -187500.02, 0.000, 0.000, 0.000, 02:35:47.542
85, 29477.57, 8485.15, -187500.02, -187500.02, -187500.02, -187500.02, -187500.02, -187500.02, 0.000, 0.000, 0.000, 02:35:47.542
86, 29514.58, 8507.97, -187500.02, -187500.02, -187500.02, -187500.02, -187500.02, -187500.02, 0.216, 0.996, -0.100, 02:35:47.542
87, 29511.39, 8522.67, -187500.02, -187500.02, -187500.02, -187500.02, -187500.02, -187500.02, 0.000, 0.000, 0.000, 02:35:47.542
88, 29486.44, 8509.17, -187500.02, -187500.02, -187500.02, -187500.02, -187500.02, -187500.02, 0.000, 0.000, 0.000, 02:35:47.542
89, 29474.30, 8485.53, -187500.02, -187500.02, -187500.02, -187500.02, -187500.02, -187500.02, 0.000, 0.000, 0.000, 02:35:47.543
90, 29504.64, 8499.50, -187500.02, -187500.02, -187500.02, -187500.02, -187500.02, -187500.02, 0.000, 0.000, 0.000, 02:35:48.005
91, 29514.67, 8518.65, -187500.02, -187500.02, -187500.02, -187500.02, -187500.02, -187500.02, 0.000, 0.000, 0.000, 02:35:48.005
92, 29504.55, 8506.38, -187500.02, -187500.02, -187500.02, -187500.02, -187500.02, -187500.02, 0.000, 0.000, 0.000, 02:35:48.005
93, 29479.98, 8477.68, -187500.02, -187500.02, -187500.02, -187500.02, -187500.02, -187500.02, 0.000, 0.000, 0.000, 02:35:48.006
94, 29487.89, 8482.33, -187500.02, -187500.02, -187500.02, -187500.02, -187500.02, -187500.02, 0.000, 0.000, 0.000, 02:35:48.006
95, 29491.31, 8486.42, -187500.02, -187500.02, -187500.02, -187500.02, -187500.02, -187500.02, 0.000, 0.000, 0.000, 02:35:48.006
96, 29488.52, 8493.33, -187500.02, -187500.02, -187500.02, -187500.02, -187500.02, -187500.02, 0.214, 0.994, -0.094, 02:35:48.006
97, 29481.39, 8485.15, -187500.02, -187500.02, -187500.02, -187500.02, -187500.02, -187500.02, 0.000, 0.000, 0.000, 02:35:48.006
98, 29497.80, 8507.45, -187500.02, -187500.02, -187500.02, -187500.02, -187500.02, -187500.02, 0.000, 0.000, 0.000, 02:35:48.006
99, 29516.66, 8519.34, -187500.02, -187500.02, -187500.02, -187500.02, -187500.02, -187500.02, 0.000, 0.000, 0.000, 02:35:48.007
100, 29510.69, 8516.13, -187500.02, -187500.02, -187500.02, -187500.02, -187500.02, -187500.02, 0.000, 0.000, 0.000, 02:35:48.007
101, 29481.23, 8496.88, -187500.02, -187500.02, -187500.02, -187500.02, -187500.02, -187500.02, 0.000, 0.000, 0.000, 02:35:48.007
102, 29491.03, 8495.03, -187500.02, -187500.02, -187500.02, -187500.02, -187500.02, -187500.02, 0.000, 0.000, 0.000, 02:35:48.008
103, 29527.08, 8517.33, -187500.02, -187500.02, -187500.02, -187500.02, -187500.02, -187500.02, 0.000, 0.000, 0.000, 02:35:48.008
104, 29515.46, 8505.31, -187500.02, -187500.02, -187500.02, -187500.02, -187500.02, -187500.02, 0.000, 0.000, 0.000, 02:35:48.008
105, 29487.05, 8497.64, -187500.02, -187500.02, -187500.02, -187500.02, -187500.02, -187500.02, 0.000, 0.000, 0.000, 02:35:48.008
106, 29482.02, 8480.56, -187500.02, -187500.02, -187500.02, -187500.02, -187500.02, -187500.02, 0.212, 0.994, -0.098, 02:35:48.008
107, 29510.36, 8493.84, -187500.02, -187500.02, -187500.02, -187500.02, -187500.02, -187500.02, 0.000, 0.000, 0.000, 02:35:48.008
108, 29509.91, 8491.74, -187500.02, -187500.02, -187500.02, -187500.02, -187500.02, -187500.02, 0.000, 0.000, 0.000, 02:35:48.009
109, 29486.49, 8491.81, -187500.02, -187500.02, -187500.02, -187500.02, -187500.02, -187500.02, 0.000, 0.000, 0.000, 02:35:48.009
110, 29463.06, 8465.16, -187500.02, -187500.02, -187500.02, -187500.02, -187500.02, -187500.02, 0.000, 0.000, 0.000, 02:35:48.009
111, 29498.85, 8474.53, -187500.02, -187500.02, -187500.02, -187500.02, -187500.02, -187500.02, 0.000, 0.000, 0.000, 02:35:48.009
112, 29507.05, 8503.23, -187500.02, -187500.02, -187500.02, -187500.02, -187500.02, -187500.02, 0.000, 0.000, 0.000, 02:35:48.009
113, 29489.53, 8498.71, -187500.02, -187500.02, -187500.02, -187500.02, -187500.02, -187500.02, 0.000, 0.000, 0.000, 02:35:48.010
114, 29467.58, 8473.17, -187500.02, -187500.02, -187500.02, -187500.02, -187500.02, -187500.02, 0.000, 0.000, 0.000, 02:35:48.010
115, 29499.23, 8483.47, -187500.02, -187500.02, -187500.02, -187500.02, -187500.02, -187500.02, 0.000, 0.000, 0.000, 02:35:48.010
116, 29510.74, 8509.85, -187500.02, -187500.02, -187500.02, -187500.02, -187500.02, -187500.02, 0.210, 0.996, -0.092, 02:35:48.010
117, 29494.89, 8497.15, -187500.02, -187500.02, -187500.02, -187500.02, -187500.02, -187500.02, 0.000, 0.000, 0.000, 02:35:48.010
118, 29456.31, 8460.58, -187500.02, -187500.02, -187500.02, -187500.02, -187500.02, -187500.02, 0.000, 0.000, 0.000, 02:35:48.011
119, 29476.61, 8465.59, -187500.02, -187500.02, -187500.02, -187500.02, -187500.02, -187500.02, 0.000, 0.000, 0.000, 02:35:48.011
120, 29505.49, 8493.42, -187500.02, -187500.02, -187500.02, -187500.02, -187500.02, -187500.02, 0.000, 0.000, 0.000, 02:35:48.011
121, 29491.29, 8489.62, -187500.02, -187500.02, -187500.02, -187500.02, -187500.02, -187500.02, 0.000, 0.000, 0.000, 02:35:48.011
122, 29475.67, 8483.36, -187500.02, -187500.02, -187500.02, -187500.02, -187500.02, -187500.02, 0.000, 0.000, 0.000, 02:35:48.011
123, 29489.37, 8485.01, -187500.02, -187500.02, -187500.02, -187500.02, -187500.02, -187500.02, 0.000, 0.000, 0.000, 02:35:48.011
124, 29511.95, 8498.85, -187500.02, -187500.02, -187500.02, -187500.02, -187500.02, -187500.02, 0.000, 0.000, 0.000, 02:35:48.011
125, 29498.56, 8473.97, -187500.02, -187500.02, -187500.02, -187500.02, -187500.02, -187500.02, 0.000, 0.000, 0.000, 02:35:48.011
126, 29470.53, 8466.62, -187500.02, -187500.02, -187500.02, -187500.02, -187500.02, -187500.02, 0.214, 0.996, -0.096, 02:35:48.012
127, 29472.21, 8481.24, -187500.02, -187500.02, -187500.02, -187500.02, -187500.02, -187500.02, 0.000, 0.000, 0.000, 02:35:48.012
128, 29497.71, 8503.70, -187500.02, -187500.02, -187500.02, -187500.02, -187500.02, -187500.02, 0.000, 0.000, 0.000, 02:35:48.012
129, 29497.87, 8490.29, -187500.02, -187500.02, -187500.02, -187500.02, -187500.02, -187500.02, 0.000, 0.000, 0.000, 02:35:48.012
130, 29480.07, 8471.67, -187500.02, -187500.02, -187500.02, -187500.02, -187500.02, -187500.02, 0.000, 0.000, 0.000, 02:35:48.012
131, 29471.36, 8468.61, -187500.02, -187500.02, -187500.02, -187500.02, -187500.02, -187500.02, 0.000, 0.000, 0.000, 02:35:48.012
132, 29494.85, 8479.45, -187500.02, -187500.02, -187500.02, -187500.02, -187500.02, -187500.02, 0.000, 0.000, 0.000, 02:35:48.012
133, 29489.95, 8478.08, -187500.02, -187500.02, -187500.02, -187500.02, -187500.02, -187500.02, 0.000, 0.000, 0.000, 02:35:48.012
134, 29472.49, 8465.19, -187500.02, -187500.02, -187500.02, -187500.02, -187500.02, -187500.02, 0.000, 0.000, 0.000, 02:35:48.013
135, 29457.70, 8446.59, -187500.02, -187500.02, -187500.02, -187500.02, -187500.02, -187500.02, 0.000, 0.000, 0.000, 02:35:48.013
136, 29494.87, 8486.53, -187500.02, -187500.02, -187500.02, -187500.02, -187500.02, -187500.02, 0.208, 0.996, -0.096, 02:35:48.013
137, 29508.86, 8510.05, -187500.02, -187500.02, -187500.02, -187500.02, -187500.02, -187500.02, 0.000, 0.000, 0.000, 02:35:48.013
138, 29489.13, 8483.83, -187500.02, -187500.02, -187500.02, -187500.02, -187500.02, -187500.02, 0.000, 0.000, 0.000, 02:35:48.013
139, 29464.49, 8445.03, -187500.02, -187500.02, -187500.02, -187500.02, -187500.02, -187500.02, 0.000, 0.000, 0.000, 02:35:48.013
140, 29496.84, 8488.25, -187500.02, -187500.02, -187500.02, -187500.02, -187500.02, -187500.02, 0.000, 0.000, 0.000, 02:35:48.014
141, 29506.74, 8525.36, -187500.02, -187500.02, -187500.02, -187500.02, -187500.02, -187500.02, 0.000, 0.000, 0.000, 02:35:48.014
142, 29476.88, 8480.36, -187500.02, -187500.02, -187500.02, -187500.02, -187500.02, -187500.02, 0.000, 0.000, 0.000, 02:35:48.014
143, 29470.60, 8464.31, -187500.02, -187500.02, -187500.02, -187500.02, -187500.02, -187500.02, 0.000, 0.000, 0.000, 02:35:48.014
144, 29479.87, 8468.49, -187500.02, -187500.02, -187500.02, -187500.02, -187500.02, -187500.02, 0.000, 0.000, 0.000, 02:35:48.014
145, 29503.99, 8488.30, -187500.02, -187500.02, -187500.02, -187500.02, -187500.02, -187500.02, 0.202, 0.994, -0.090, 02:35:48.014
146, 29506.04, 8490.60, -187500.02, -187500.02, -187500.02, -187500.02, -187500.02, -187500.02, 0.000, 0.000, 0.000, 02:35:48.014
147, 29498.13, 8474.53, -187500.02, -187500.02, -187500.02, -187500.02, -187500.02, -187500.02, 0.000, 0.000, 0.000, 02:35:48.015
148, 29500.35, 8474.51, -187500.02, -187500.02, -187500.02, -187500.02, -187500.02, -187500.02, 0.000, 0.000, 0.000, 02:35:48.015
149, 29518.27, 8505.93, -187500.02, -187500.02, -187500.02, -187500.02, -187500.02, -187500.02, 0.000, 0.000, 0.000, 02:35:48.015
150, 29505.06, 8486.60, -187500.02, -187500.02, -187500.02, -187500.02, -187500.02, -187500.02, 0.000, 0.000, 0.000, 02:35:48.015
151, 29475.42, 8451.42, -187500.02, -187500.02, -187500.02, -187500.02, -187500.02, -187500.02, 0.000, 0.000, 0.000, 02:35:48.015
152, 29484.48, 8468.16, -187500.02, -187500.02, -187500.02, -187500.02, -187500.02, -187500.02, 0.000, 0.000, 0.000, 02:35:48.015
153, 29519.26, 8489.59, -187500.02, -187500.02, -187500.02, -187500.02, -187500.02, -187500.02, 0.000, 0.000, 0.000, 02:35:48.015
154, 29502.89, 8492.79, -187500.02, -187500.02, -187500.02, -187500.02, -187500.02, -187500.02, 0.000, 0.000, 0.000, 02:35:48.015
155, 29473.99, 8455.84, -187500.02, -187500.02, -187500.02, -187500.02, -187500.02, -187500.02, 0.206, 0.994, -0.090, 02:35:48.016
156, 29457.86, 8444.24, -187500.02, -187500.02, -187500.02, -187500.02, -187500.02, -187500.02, 0.000, 0.000, 0.000, 02:35:48.016
157, 29496.77, 8485.01, -187500.02, -187500.02, -187500.02, -187500.02, -187500.02, -187500.02, 0.000, 0.000, 0.000, 02:35:48.016
158, 29495.32, 8477.59, -187500.02, -187500.02, -187500.02, -187500.02, -187500.02, -187500.02, 0.000, 0.000, 0.000, 02:35:48.016
159, 29480.94, 8464.14, -187500.02, -187500.02, -187500.02, -187500.02, -187500.02, -187500.02, 0.000, 0.000, 0.000, 02:35:48.016
160, 29459.40, 8447.53, -187500.02, -187500.02, -187500.02, -187500.02, -187500.02, -187500.02, 0.000, 0.000, 0.000, 02:35:48.016
161, 29497.46, 8482.78, -187500.02, -187500.02, -187500.02, -187500.02, -187500.02, -187500.02, 0.000, 0.000, 0.000, 02:35:48.017
162, 29502.83, 8486.33, -187500.02, -187500.02, -187500.02, -187500.02, -187500.02, -187500.02, 0.000, 0.000, 0.000, 02:35:48.017
163, 29489.28, 8466.28, -187500.02, -187500.02, -187500.02, -187500.02, -187500.02, -187500.02, 0.000, 0.000, 0.000, 02:35:48.017
164, 29460.89, 8438.81, -187500.02, -187500.02, -187500.02, -187500.02, -187500.02, -187500.02, 0.000, 0.000, 0.000, 02:35:48.017
165, 29488.07, 8461.68, -187500.02, -187500.02, -187500.02, -187500.02, -187500.02, -187500.02, 0.208, 1.002, -0.086, 02:35:48.017
166, 29509.44, 8484.07, -187500.02, -187500.02, -187500.02, -187500.02, -187500.02, -187500.02, 0.000, 0.000, 0.000, 02:35:48.017
167, 29494.15, 8460.65, -187500.02, -187500.02, -187500.02, -187500.02, -187500.02, -187500.02, 0.000, 0.000, 0.000, 02:35:48.018
168, 29454.97, 8445.41, -187500.02, -187500.02, -187500.02, -187500.02, -187500.02, -187500.02, 0.000, 0.000, 0.000, 02:35:48.018
169, 29479.40, 8459.13, -187500.02, -187500.02, -187500.02, -187500.02, -187500.02, -187500.02, 0.000, 0.000, 0.000, 02:35:48.018
170, 29508.97, 8490.91, -187500.02, -187500.02, -187500.02, -187500.02, -187500.02, -187500.02, 0.000, 0.000, 0.000, 02:35:48.018
171, 29484.25, 8461.83, -187500.02, -187500.02, -187500.02, -187500.02, -187500.02, -187500.02, 0.000, 0.000, 0.000, 02:35:48.018
172, 29461.28, 8437.89, -187500.02, -187500.02, -187500.02, -187500.02, -187500.02, -187500.02, 0.000, 0.000, 0.000, 02:35:48.018
173, 29470.95, 8457.56, -187500.02, -187500.02, -187500.02, -187500.02, -187500.02, -187500.02, 0.000, 0.000, 0.000, 02:35:48.018
174, 29498.54, 8473.28, -187500.02, -187500.02, -187500.02, -187500.02, -187500.02, -187500.02, 0.000, 0.000, 0.000, 02:35:48.018
175, 29507.97, 8474.42, -187500.02, -187500.02, -187500.02, -187500.02, -187500.02, -187500.02, 0.210, 0.994, -0.084, 02:35:48.019
176, 29469.50, 8440.13, -187500.02, -187500.02, -187500.02, -187500.02, -187500.02, -187500.02, 0.000, 0.000, 0.000, 02:35:48.019
177, 29458.14, 8444.73, -187500.02, -187500.02, -187500.02, -187500.02, -187500.02, -187500.02, 0.000, 0.000, 0.000, 02:35:48.019
178, 29489.17, 8472.70, -187500.02, -187500.02, -187500.02, -187500.02, -187500.02, -187500.02, 0.000, 0.000, 0.000, 02:35:48.019
179, 29494.22, 8476.18, -187500.02, -187500.02, -187500.02, -187500.02, -187500.02, -187500.02, 0.000, 0.000, 0.000, 02:35:48.019
180, 29485.17, 8451.28, -187500.02, -187500.02, -187500.02, -187500.02, -187500.02, -187500.02, 0.000, 0.000, 0.000, 02:35:48.019
181, 29471.18, 8436.55, -187500.02, -187500.02, -187500.02, -187500.02, -187500.02, -187500.02, 0.000, 0.000, 0.000, 02:35:48.019
182, 29502.74, 8480.21, -187500.02, -187500.02, -187500.02, -187500.02, -187500.02, -187500.02, 0.000, 0.000, 0.000, 02:35:48.019
183, 29502.04, 8479.85, -187500.02, -187500.02, -187500.02, -187500.02, -187500.02, -187500.02, 0.000, 0.000, 0.000, 02:35:48.020
184, 29483.89, 8460.36, -187500.02, -187500.02, -187500.02, -187500.02, -187500.02, -187500.02, 0.000, 0.000, 0.000, 02:35:48.020
185, 29447.77, 8408.28, -187500.02, -187500.02, -187500.02, -187500.02, -187500.02, -187500.02, 0.208, 0.996, -0.086, 02:35:48.020
186, 29488.46, 8444.67, -187500.02, -187500.02, -187500.02, -187500.02, -187500.02, -187500.02, 0.000, 0.000, 0.000, 02:35:48.020
187, 29508.19, 8467.40, -187500.02, -187500.02, -187500.02, -187500.02, -187500.02, -187500.02, 0.000, 0.000, 0.000, 02:35:48.020
188, 29473.97, 8470.57, -187500.02, -187500.02, -187500.02, -187500.02, -187500.02, -187500.02, 0.000, 0.000, 0.000, 02:35:48.020
189, 29448.06, 8451.75, -187500.02, -187500.02, -187500.02, -187500.02, -187500.02, -187500.02, 0.000, 0.000, 0.000, 02:35:48.020
190, 29474.93, 8464.27, -187500.02, -187500.02, -187500.02, -187500.02, -187500.02, -187500.02, 0.000, 0.000, 0.000, 02:35:48.020
191, 29513.04, 8493.19, -187500.02, -187500.02, -187500.02, -187500.02, -187500.02, -187500.02, 0.000, 0.000, 0.000, 02:35:48.021
192, 29510.58, 8486.64, -187500.02, -187500.02, -187500.02, -187500.02, -187500.02, -187500.02, 0.000, 0.000, 0.000, 02:35:48.021
193, 29482.06, 8463.62, -187500.02, -187500.02, -187500.02, -187500.02, -187500.02, -187500.02, 0.000, 0.000, 0.000, 02:35:48.021
194, 29486.80, 8449.83, -187500.02, -187500.02, -187500.02, -187500.02, -187500.02, -187500.02, 0.000, 0.000, 0.000, 02:35:48.021
195, 29504.99, 8461.34, -187500.02, -187500.02, -187500.02, -187500.02, -187500.02, -187500.02, 0.208, 0.996, -0.078, 02:35:48.021
196, 29488.66, 8457.90, -187500.02, -187500.02, -187500.02, -187500.02, -187500.02, -187500.02, 0.000, 0.000, 0.000, 02:35:48.021
197, 29463.96, 8443.77, -187500.02, -187500.02, -187500.02, -187500.02, -187500.02, -187500.02, 0.000, 0.000, 0.000, 02:35:48.022
198, 29471.98, 8448.49, -187500.02, -187500.02, -187500.02, -187500.02, -187500.02, -187500.02, 0.000, 0.000, 0.000, 02:35:48.022
199, 29505.31, 8475.29, -187500.02, -187500.02, -187500.02, -187500.02, -187500.02, -187500.02, 0.000, 0.000, 0.000, 02:35:48.022
200, 29502.94, 8454.35, -187500.02, -187500.02, -187500.02, -187500.02, -187500.02, -187500.02, 0.000, 0.000, 0.000, 02:35:48.022
201, 29482.51, 8451.82, -187500.02, -187500.02, -187500.02, -187500.02, -187500.02, -187500.02, 0.000, 0.000, 0.000, 02:35:48.022
202, 29471.91, 8439.77, -187500.02, -187500.02, -187500.02, -187500.02, -187500.02, -187500.02, 0.000, 0.000, 0.000, 02:35:48.022
203, 29506.51, 8460.96, -187500.02, -187500.02, -187500.02, -187500.02, -187500.02, -187500.02, 0.000, 0.000, 0.000, 02:35:48.022
204, 29509.06, 8464.49, -187500.02, -187500.02, -187500.02, -187500.02, -187500.02, -187500.02, 0.000, 0.000, 0.000, 02:35:48.022
205, 29476.94, 8430.03, -187500.02, -187500.02, -187500.02, -187500.02, -187500.02, -187500.02, 0.204, 0.994, -0.080, 02:35:48.023
206, 29447.15, 8398.69, -187500.02, -187500.02, -187500.02, -187500.02, -187500.02, -187500.02, 0.000, 0.000, 0.000, 02:35:48.023
207, 29485.21, 8443.44, -187500.02, -187500.02, -187500.02, -187500.02, -187500.02, -187500.02, 0.000, 0.000, 0.000, 02:35:48.023
208, 29509.26, 8476.12, -187500.02, -187500.02, -187500.02, -187500.02, -187500.02, -187500.02, 0.000, 0.000, 0.000, 02:35:48.023
209, 29483.51, 8457.34, -187500.02, -187500.02, -187500.02, -187500.02, -187500.02, -187500.02, 0.000, 0.000, 0.000, 02:35:48.023
210, 29447.30, 8424.84, -187500.02, -187500.02, -187500.02, -187500.02, -187500.02, -187500.02, 0.000, 0.000, 0.000, 02:35:48.485
211, 29482.13, 8436.51, -187500.02, -187500.02, -187500.02, -187500.02, -187500.02, -187500.02, 0.000, 0.000, 0.000, 02:35:48.485
212, 29496.61, 8472.23, -187500.02, -187500.02, -187500.02, -187500.02, -187500.02, -187500.02, 0.000, 0.000, 0.000, 02:35:48.485
213, 29494.33, 8480.74, -187500.02, -187500.02, -187500.02, -187500.02, -187500.02, -187500.02, 0.000, 0.000, 0.000, 02:35:48.485
214, 29465.97, 8446.75, -187500.02, -187500.02, -187500.02, -187500.02, -187500.02, -187500.02, 0.210, 0.996, -0.084, 02:35:48.485
215, 29488.83, 8442.70, -187500.02, -187500.02, -187500.02, -187500.02, -187500.02, -187500.02, 0.000, 0.000, 0.000, 02:35:48.485
216, 29505.26, 8454.75, -187500.02, -187500.02, -187500.02, -187500.02, -187500.02, -187500.02, 0.000, 0.000, 0.000, 02:35:48.486
217, 29485.26, 8459.73, -187500.02, -187500.02, -187500.02, -187500.02, -187500.02, -187500.02, 0.000, 0.000, 0.000, 02:35:48.486
218, 29461.12, 8430.76, -187500.02, -187500.02, -187500.02, -187500.02, -187500.02, -187500.02, 0.000, 0.000, 0.000, 02:35:48.486
219, 29469.30, 8438.48, -187500.02, -187500.02, -187500.02, -187500.02, -187500.02, -187500.02, 0.000, 0.000, 0.000, 02:35:48.486
220, 29496.34, 8455.64, -187500.02, -187500.02, -187500.02, -187500.02, -187500.02, -187500.02, 0.000, 0.000, 0.000, 02:35:48.486
221, 29485.75, 8441.00, -187500.02, -187500.02, -187500.02, -187500.02, -187500.02, -187500.02, 0.000, 0.000, 0.000, 02:35:48.486
222, 29462.30, 8430.65, -187500.02, -187500.02, -187500.02, -187500.02, -187500.02, -187500.02, 0.000, 0.000, 0.000, 02:35:48.486
223, 29462.37, 8418.58, -187500.02, -187500.02, -187500.02, -187500.02, -187500.02, -187500.02, 0.000, 0.000, 0.000, 02:35:48.486
224, 29500.23, 8454.39, -187500.02, -187500.02, -187500.02, -187500.02, -187500.02, -187500.02, 0.214, 1.002, -0.082, 02:35:48.487
225, 29503.70, 8462.28, -187500.02, -187500.02, -187500.02, -187500.02, -187500.02, -187500.02, 0.000, 0.000, 0.000, 02:35:48.487
226, 29474.66, 8434.45, -187500.02, -187500.02, -187500.02, -187500.02, -187500.02, -187500.02, 0.000, 0.000, 0.000, 02:35:48.487
227, 29468.56, 8421.65, -187500.02, -187500.02, -187500.02, -187500.02, -187500.02, -187500.02, 0.000, 0.000, 0.000, 02:35:48.487
228, 29506.38, 8441.56, -187500.02, -187500.02, -187500.02, -187500.02, -187500.02, -187500.02, 0.000, 0.000, 0.000, 02:35:48.487
229, 29506.18, 8463.11, -187500.02, -187500.02, -187500.02, -187500.02, -187500.02, -187500.02, 0.000, 0.000, 0.000, 02:35:48.488
230, 29479.02, 8439.42, -187500.02, -187500.02, -187500.02, -187500.02, -187500.02, -187500.02, 0.000, 0.000, 0.000, 02:35:48.488
231, 29442.37, 8402.98, -187500.02, -187500.02, -187500.02, -187500.02, -187500.02, -187500.02, 0.000, 0.000, 0.000, 02:35:48.488
232, 29474.46, 8439.93, -187500.02, -187500.02, -187500.02, -187500.02, -187500.02, -187500.02, 0.000, 0.000, 0.000, 02:35:48.488
233, 29477.68, 8448.07, -187500.02, -187500.02, -187500.02, -187500.02, -187500.02, -187500.02, 0.000, 0.000, 0.000, 02:35:48.488
234, 29471.51, 8441.54, -187500.02, -187500.02, -187500.02, -187500.02, -187500.02, -187500.02, 0.210, 0.998, -0.080, 02:35:48.488
235, 29458.39, 8404.23, -187500.02, -187500.02, -187500.02, -187500.02, -187500.02, -187500.02, 0.000, 0.000, 0.000, 02:35:48.488
236, 29478.40, 8419.16, -187500.02, -187500.02, -187500.02, -187500.02, -187500.02, -187500.02, 0.000, 0.000, 0.000, 02:35:48.488
237, 29495.83, 8450.21, -187500.02, -187500.02, -187500.02, -187500.02, -187500.02, -187500.02, 0.000, 0.000, 0.000, 02:35:48.489
238, 29488.23, 8444.38, -187500.02, -187500.02, -187500.02, -187500.02, -187500.02, -187500.02, 0.000, 0.000, 0.000, 02:35:48.489
239, 29452.02, 8404.32, -187500.02, -187500.02, -187500.02, -187500.02, -187500.02, -187500.02, 0.000, 0.000, 0.000, 02:35:48.489
240, 29473.72, 8414.69, -187500.02, -187500.02, -187500.02, -187500.02, -187500.02, -187500.02, 0.000, 0.000, 0.000, 02:35:48.489
241, 29501.51, 8464.00, -187500.02, -187500.02, -187500.02, -187500.02, -187500.02, -187500.02, 0.000, 0.000, 0.000, 02:35:48.489
242, 29487.40, 8438.59, -187500.02, -187500.02, -187500.02, -187500.02, -187500.02, -187500.02, 0.000, 0.000, 0.000, 02:35:48.489
243, 29473.57, 8432.89, -187500.02, -187500.02, -187500.02, -187500.02, -187500.02, -187500.02, 0.000, 0.000, 0.000, 02:35:48.489
244, 29465.48, 8436.53, -187500.02, -187500.02, -187500.02, -187500.02, -187500.02, -187500.02, 0.212, 0.998, -0.092, 02:35:48.490
245, 29480.23, 8423.46, -187500.02, -187500.02, -187500.02, -187500.02, -187500.02, -187500.02, 0.000, 0.000, 0.000, 02:35:48.490
246, 29473.37, 8427.17, -187500.02, -187500.02, -187500.02, -187500.02, -187500.02, -187500.02, 0.000, 0.000, 0.000, 02:35:48.490
247, 29471.47, 8450.99, -187500.02, -187500.02, -187500.02, -187500.02, -187500.02, -187500.02, 0.000, 0.000, 0.000, 02:35:48.490
248, 29500.57, 8455.35, -187500.02, -187500.02, -187500.02, -187500.02, -187500.02, -187500.02, 0.000, 0.000, 0.000, 02:35:48.490
249, 29529.87, 8478.13, -187500.02, -187500.02, -187500.02, -187500.02, -187500.02, -187500.02, 0.000, 0.000, 0.000, 02:35:48.490
250, 29522.14, 8467.18, -187500.02, -187500.02, -187500.02, -187500.02, -187500.02, -187500.02, 0.000, 0.000, 0.000, 02:35:48.491
251, 29485.08, 8435.53, -187500.02, -187500.02, -187500.02, -187500.02, -187500.02, -187500.02, 0.000, 0.000, 0.000, 02:35:48.491
252, 29463.40, 8436.20, -187500.02, -187500.02, -187500.02, -187500.02, -187500.02, -187500.02, 0.000, 0.000, 0.000, 02:35:48.491
253, 29502.94, 8468.87, -187500.02, -187500.02, -187500.02, -187500.02, -187500.02, -187500.02, 0.000, 0.000, 0.000, 02:35:48.491
254, 29508.35, 8486.69, -187500.02, -187500.02, -187500.02, -187500.02, -187500.02, -187500.02, 0.212, 0.996, -0.088, 02:35:48.491
255, 29497.89, 8473.19, -187500.02, -187500.02, -187500.02, -187500.02, -187500.02, -187500.02, 0.000, 0.000, 0.000, 02:35:48.491
0, 29481.59, 8458.08, -187500.02, -187500.02, -187500.02, -187500.02, -187500.02, -187500.02, 0.000, 0.000, 0.000, 02:35:48.491
1, 29511.41, 8474.95, -187500.02, -187500.02, -187500.02, -187500.02, -187500.02, -187500.02, 0.000, 0.000, 0.000, 02:35:48.491
2, 29520.02, 8469.48, -187500.02, -187500.02, -187500.02, -187500.02, -187500.02, -187500.02, 0.000, 0.000, 0.000, 02:35:48.492
3, 29505.11, 8476.65, -187500.02, -187500.02, -187500.02, -187500.02, -187500.02, -187500.02, 0.000, 0.000, 0.000, 02:35:48.492
4, 29472.43, 8479.54, -187500.02, -187500.02, -187500.02, -187500.02, -187500.02, -187500.02, 0.000, 0.000, 0.000, 02:35:48.492
5, 29481.46, 8468.05, -187500.02, -187500.02, -187500.02, -187500.02, -187500.02, -187500.02, 0.000, 0.000, 0.000, 02:35:48.492
6, 29502.98, 8490.51, -187500.02, -187500.02, -187500.02, -187500.02, -187500.02, -187500.02, 0.000, 0.000, 0.000, 02:35:48.492
7, 29500.86, 8505.38, -187500.02, -187500.02, -187500.02, -187500.02, -187500.02, -187500.02, 0.000, 0.000, 0.000, 02:35:48.492
8, 29473.63, 8465.03, -187500.02, -187500.02, -187500.02, -187500.02, -187500.02, -187500.02, 0.210, 0.998, -0.088, 02:35:48.492
9, 29492.97, 8465.32, -187500.02, -187500.02, -187500.02, -187500.02, -187500.02, -187500.02, 0.000, 0.000, 0.000, 02:35:48.492
10, 29511.59, 8499.14, -187500.02, -187500.02, -187500.02, -187500.02, -187500.02, -187500.02, 0.000, 0.000, 0.000, 02:35:48.492
11, 29512.28, 8513.65, -187500.02, -187500.02, -187500.02, -187500.02, -187500.02, -187500.02, 0.000, 0.000, 0.000, 02:35:48.493
12, 29487.63, 8477.30, -187500.02, -187500.02, -187500.02, -187500.02, -187500.02, -187500.02, 0.000, 0.000, 0.000, 02:35:48.493
13, 29479.67, 8466.21, -187500.02, -187500.02, -187500.02, -187500.02, -187500.02, -187500.02, 0.000, 0.000, 0.000, 02:35:48.493
14, 29511.10, 8501.11, -187500.02, -187500.02, -187500.02, -187500.02, -187500.02, -187500.02, 0.000, 0.000, 0.000, 02:35:48.493
15, 29508.46, 8513.40, -187500.02, -187500.02, -187500.02, -187500.02, -187500.02, -187500.02, 0.000, 0.000, 0.000, 02:35:48.493
16, 29483.71, 8493.48, -187500.02, -187500.02, -187500.02, -187500.02, -187500.02, -187500.02, 0.000, 0.000, 0.000, 02:35:48.493
17, 29486.40, 8474.37, -187500.02, -187500.02, -187500.02, -187500.02, -187500.02, -187500.02, 0.208, 0.996, -0.086, 02:35:48.493
18, 29523.61, 8513.29, -187500.02, -187500.02, -187500.02, -187500.02, -187500.02, -187500.02, 0.000, 0.000, 0.000, 02:35:48.494
19, 29508.21, 8512.13, -187500.02, -187500.02, -187500.02, -187500.02, -187500.02, -187500.02, 0.000, 0.000, 0.000, 02:35:48.494
20, 29479.31, 8486.38, -187500.02, -187500.02, -187500.02, -187500.02, -187500.02, -187500.02, 0.000, 0.000, 0.000, 02:35:48.494
21, 29477.95, 8480.90, -187500.02, -187500.02, -187500.02, -187500.02, -187500.02, -187500.02, 0.000, 0.000, 0.000, 02:35:48.494
22, 29507.79, 8511.70, -187500.02, -187500.02, -187500.02, -187500.02, -187500.02, -187500.02, 0.000, 0.000, 0.000, 02:35:48.494
23, 29512.48, 8504.86, -187500.02, -187500.02, -187500.02, -187500.02, -187500.02, -187500.02, 0.000, 0.000, 0.000, 02:35:48.494
24, 29498.67, 8502.45, -187500.02, -187500.02, -187500.02, -187500.02, -187500.02, -187500.02, 0.000, 0.000, 0.000, 02:35:48.494
25, 29475.91, 8484.25, -187500.02, -187500.02, -187500.02, -187500.02, -187500.02, -187500.02, 0.000, 0.000, 0.000, 02:35:48.494
26, 29512.15, 8509.06, -187500.02, -187500.02, -187500.02, -187500.02, -187500.02, -187500.02, 0.000, 0.000, 0.000, 02:35:48.494
27, 29534.43, 8513.76, -187500.02, -187500.02, -187500.02, -187500.02, -187500.02, -187500.02, 0.212, 0.996, -0.084, 02:35:48.494
28, 29510.72, 8486.46, -187500.02, -187500.02, -187500.02, -187500.02, -187500.02, -187500.02, 0.000, 0.000, 0.000, 02:35:48.494
29, 29464.54, 8457.34, -187500.02, -187500.02, -187500.02, -187500.02, -187500.02, -187500.02, 0.000, 0.000, 0.000, 02:35:48.495
30, 29476.21, 8469.37, -187500.02, -187500.02, -187500.02, -187500.02, -187500.02, -187500.02, 0.000, 0.000, 0.000, 02:35:48.495
31, 29504.93, 8510.25, -187500.02, -187500.02, -187500.02, -187500.02, -187500.02, -187500.02, 0.000, 0.000, 0.000, 02:35:48.495
32, 29514.23, 8533.47, -187500.02, -187500.02, -187500.02, -187500.02, -187500.02, -187500.02, 0.000, 0.000, 0.000, 02:35:48.496
33, 29472.63, 8463.89, -187500.02, -187500.02, -187500.02, -187500.02, -187500.02, -187500.02, 0.000, 0.000, 0.000, 02:35:48.496
34, 29471.87, 8480.16, -187500.02, -187500.02, -187500.02, -187500.02, -187500.02, -187500.02, 0.000, 0.000, 0.000, 02:35:48.496
35, 29491.81, 8520.98, -187500.02, -187500.02, -187500.02, -187500.02, -187500.02, -187500.02, 0.000, 0.000, 0.000, 02:35:48.496
36, 29489.73, 8514.52, -187500.02, -187500.02, -187500.02, -187500.02, -187500.02, -187500.02, 0.000, 0.000, 0.000, 02:35:48.496
37, 29458.82, 8487.76, -187500.02, -187500.02, -187500.02, -187500.02, -187500.02, -187500.02, 0.208, 0.992, -0.088, 02:35:48.496
38, 29472.29, 8495.03, -187500.02, -187500.02, -187500.02, -187500.02, -187500.02, -187500.02, 0.000, 0.000, 0.000, 02:35:48.497
39, 29503.36, 8520.13, -187500.02, -187500.02, -187500.02, -187500.02, -187500.02, -187500.02, 0.000, 0.000, 0.000, 02:35:48.497
40, 29507.27, 8516.80, -187500.02, -187500.02, -187500.02, -187500.02, -187500.02, -187500.02, 0.000, 0.000, 0.000, 02:35:48.497
41, 29477.90, 8488.21, -187500.02, -187500.02, -187500.02, -187500.02, -187500.02, -187500.02, 0.000, 0.000, 0.000, 02:35:48.497
42, 29474.69, 8470.30, -187500.02, -187500.02, -187500.02, -187500.02, -187500.02, -187500.02, 0.000, 0.000, 0.000, 02:35:48.497
43, 29506.22, 8508.37, -187500.02, -187500.02, -187500.02, -187500.02, -187500.02, -187500.02, 0.000, 0.000, 0.000, 02:35:48.497
44, 29499.79, 8515.28, -187500.02, -187500.02, -187500.02, -187500.02, -187500.02, -187500.02, 0.000, 0.000, 0.000, 02:35:48.497
45, 29471.85, 8490.04, -187500.02, -187500.02, -187500.02, -187500.02, -187500.02, -187500.02, 0.000, 0.000, 0.000, 02:35:48.497
46, 29481.97, 8487.14, -187500.02, -187500.02, -187500.02, -187500.02, -187500.02, -187500.02, 0.000, 0.000, 0.000, 02:35:48.497
47, 29497.64, 8498.96, -187500.02, -187500.02, -187500.02, -187500.02, -187500.02, -187500.02, 0.208, 1.000, -0.092, 02:35:48.498
48, 29499.92, 8502.83, -187500.02, -187500.02, -187500.02, -187500.02, -187500.02, -187500.02, 0.000, 0.000, 0.000, 02:35:48.498
49, 29475.60, 8473.61, -187500.02, -187500.02, -187500.02, -187500.02, -187500.02, -187500.02, 0.000, 0.000, 0.000, 02:35:48.498
50, 29455.57, 8453.05, -187500.02, -187500.02, -187500.02, -187500.02, -187500.02, -187500.02, 0.000, 0.000, 0.000, 02:35:48.498
51, 29494.36, 8479.98, -187500.02, -187500.02, -187500.02, -187500.02, -187500.02, -187500.02, 0.000, 0.000, 0.000, 02:35:48.498
52, 29514.40, 8518.61, -187500.02, -187500.02, -187500.02, -187500.02, -187500.02, -187500.02, 0.000, 0.000, 0.000, 02:35:48.499
53, 29483.13, 8482.22, -187500.02, -187500.02, -187500.02, -187500.02, -187500.02, -187500.02, 0.000, 0.000, 0.000, 02:35:48.499
54, 29446.32, 8444.22, -187500.02, -187500.02, -187500.02, -187500.02, -187500.02, -187500.02, 0.000, 0.000, 0.000, 02:35:48.499
55, 29474.98, 8462.55, -187500.02, -187500.02, -187500.02, -187500.02, -187500.02, -187500.02, 0.000, 0.000, 0.000, 02:35:48.499
56, 29502.89, 8501.58, -187500.02, -187500.02, -187500.02, -187500.02, -187500.02, -187500.02, 0.000, 0.000, 0.000, 02:35:48.499
57, 29490.53, 8502.20, -187500.02, -187500.02, -187500.02, -187500.02, -187500.02, -187500.02, 0.206, 0.984, -0.064, 02:35:48.500
58, 29453.65, 8460.02, -187500.02, -187500.02, -187500.02, -187500.02, -187500.02, -187500.02, 0.000, 0.000, 0.000, 02:35:48.500
59, 29474.26, 8496.23, -187500.02, -187500.02, -187500.02, -187500.02, -187500.02, -187500.02, 0.000, 0.000, 0.000, 02:35:48.500
60, 29497.84, 8509.17, -187500.02, -187500.02, -187500.02, -187500.02, -187500.02, -187500.02, 0.000, 0.000, 0.000, 02:35:48.500
61, 29474.26, 8475.42, -187500.02, -187500.02, -187500.02, -187500.02, -187500.02, -187500.02, 0.000, 0.000, 0.000, 02:35:48.500
62, 29470.95, 8467.24, -187500.02, -187500.02, -187500.02, -187500.02, -187500.02, -187500.02, 0.000, 0.000, 0.000, 02:35:48.500
63, 29490.87, 8501.11, -187500.02, -187500.02, -187500.02, -187500.02, -187500.02, -187500.02, 0.000, 0.000, 0.000, 02:35:48.500
64, 29506.18, 8512.42, -187500.02, -187500.02, -187500.02, -187500.02, -187500.02, -187500.02, 0.000, 0.000, 0.000, 02:35:48.501
65, 29506.47, 8501.17, -187500.02, -187500.02, -187500.02, -187500.02, -187500.02, -187500.02, 0.000, 0.000, 0.000, 02:35:48.501
66, 29484.77, 8487.58, -187500.02, -187500.02, -187500.02, -187500.02, -187500.02, -187500.02, 0.000, 0.000, 0.000, 02:35:48.501
67, 29478.33, 8497.35, -187500.02, -187500.02, -187500.02, -187500.02, -187500.02, -187500.02, 0.208, 1.002, -0.086, 02:35:48.501
68, 29494.06, 8497.62, -187500.02, -187500.02, -187500.02, -187500.02, -187500.02, -187500.02, 0.000, 0.000, 0.000, 02:35:48.501
69, 29497.35, 8505.08, -187500.02, -187500.02, -187500.02, -187500.02, -187500.02, -187500.02, 0.000, 0.000, 0.000, 02:35:48.501
70, 29472.85, 8481.35, -187500.02, -187500.02, -187500.02, -187500.02, -187500.02, -187500.02, 0.000, 0.000, 0.000, 02:35:48.501
71, 29442.86, 8443.44, -187500.02, -187500.02, -187500.02, -187500.02, -187500.02, -187500.02, 0.000, 0.000, 0.000, 02:35:48.501
72, 29471.13, 8468.27, -187500.02, -187500.02, -187500.02, -187500.02, -187500.02, -187500.02, 0.000, 0.000, 0.000, 02:35:48.502
73, 29502.54, 8500.21, -187500.02, -187500.02, -187500.02, -187500.02, -187500.02, -187500.02, 0.000, 0.000, 0.000, 02:35:48.502
74, 29487.22, 8512.53, -187500.02, -187500.02, -187500.02, -187500.02, -187500.02, -187500.02, 0.000, 0.000, 0.000, 02:35:48.966
75, 29468.00, 8492.90, -187500.02, -187500.02, -187500.02, -187500.02, -187500.02, -187500.02, 0.000, 0.000, 0.000, 02:35:48.966
76, 29498.02, 8514.20, -187500.02, -187500.02, -187500.02, -187500.02, -187500.02, -187500.02, 0.212, 0.994, -0.084, 02:35:48.966
77, 29503.61, 8528.40, -187500.02, -187500.02, -187500.02, -187500.02, -187500.02, -187500.02, 0.000, 0.000, 0.000, 02:35:48.966
78, 29483.29, 8487.14, -187500.02, -187500.02, -187500.02, -187500.02, -187500.02, -187500.02, 0.000, 0.000, 0.000, 02:35:48.966
79, 29451.06, 8446.75, -187500.02, -187500.02, -187500.02, -187500.02, -187500.02, -187500.02, 0.000, 0.000, 0.000, 02:35:48.966
80, 29473.61, 8474.51, -187500.02, -187500.02, -187500.02, -187500.02, -187500.02, -187500.02, 0.000, 0.000, 0.000, 02:35:48.967
81, 29495.05, 8505.87, -187500.02, -187500.02, -187500.02, -187500.02, -187500.02, -187500.02, 0.000, 0.000, 0.000, 02:35:48.967
82, 29492.46, 8491.03, -187500.02, -187500.02, -187500.02, -187500.02, -187500.02, -187500.02, 0.000, 0.000, 0.000, 02:35:48.967
83, 29466.68, 8479.02, -187500.02, -187500.02, -187500.02, -187500.02, -187500.02, -187500.02, 0.000, 0.000, 0.000, 02:35:48.967
84, 29467.51, 8470.89, -187500.02, -187500.02, -187500.02, -187500.02, -187500.02, -187500.02, 0.000, 0.000, 0.000, 02:35:48.967
85, 29488.12, 8504.39, -187500.02, -187500.02, -187500.02, -187500.02, -187500.02, -187500.02, 0.000, 0.000, 0.000, 02:35:48.967
86, 29484.81, 8498.83, -187500.02, -187500.02, -187500.02, -187500.02, -187500.02, -187500.02, 0.204, 0.998, -0.084, 02:35:48.967
87, 29463.78, 8467.13, -187500.02, -187500.02, -187500.02, -187500.02, -187500.02, -187500.02, 0.000, 0.000, 0.000, 02:35:48.968
88, 29465.16, 8465.14, -187500.02, -187500.02, -187500.02, -187500.02, -187500.02, -187500.02, 0.000, 0.000, 0.000, 02:35:48.968
89, 29486.31, 8479.98, -187500.02, -187500.02, -187500.02, -187500.02, -187500.02, -187500.02, 0.000, 0.000, 0.000, 02:35:48.968
90, 29480.97, 8480.81, -187500.02, -187500.02, -187500.02, -187500.02, -187500.02, -187500.02, 0.000, 0.000, 0.000, 02:35:48.968
91, 29476.43, 8475.02, -187500.02, -187500.02, -187500.02, -187500.02, -187500.02, -187500.02, 0.000, 0.000, 0.000, 02:35:48.969
92, 29460.94, 8460.56, -187500.02, -187500.02, -187500.02, -187500.02, -187500.02, -187500.02, 0.000, 0.000, 0.000, 02:35:48.969
93, 29480.86, 8479.42, -187500.02, -187500.02, -187500.02, -187500.02, -187500.02, -187500.02, 0.000, 0.000, 0.000, 02:35:48.969
94, 29495.36, 8498.04, -187500.02, -187500.02, -187500.02, -187500.02, -187500.02, -187500.02, 0.000, 0.000, 0.000, 02:35:48.969
95, 29481.37, 8491.18, -187500.02, -187500.02, -187500.02, -187500.02, -187500.02, -187500.02, 0.000, 0.000, 0.000, 02:35:48.969
96, 29462.93, 8468.63, -187500.02, -187500.02, -187500.02, -187500.02, -187500.02, -187500.02, 0.204, 0.992, -0.082, 02:35:48.969
97, 29491.88, 8486.29, -187500.02, -187500.02, -187500.02, -187500.02, -187500.02, -187500.02, 0.000, 0.000, 0.000, 02:35:48.969
98, 29508.66, 8501.78, -187500.02, -187500.02, -187500.02, -187500.02, -187500.02, -187500.02, 0.000, 0.000, 0.000, 02:35:48.970
99, 29487.63, 8473.01, -187500.02, -187500.02, -187500.02, -187500.02, -187500.02, -187500.02, 0.000, 0.000, 0.000, 02:35:48.970
100, 29453.18, 8452.33, -187500.02, -187500.02, -187500.02, -187500.02, -187500.02, -187500.02, 0.000, 0.000, 0.000, 02:35:48.970
101, 29469.08, 8477.66, -187500.02, -187500.02, -187500.02, -187500.02, -187500.02, -187500.02, 0.000, 0.000, 0.000, 02:35:48.970
102, 29493.48, 8505.64, -187500.02, -187500.02, -187500.02, -187500.02, -187500.02, -187500.02, 0.000, 0.000, 0.000, 02:35:48.970
103, 29473.19, 8472.61, -187500.02, -187500.02, -187500.02, -187500.02, -187500.02, -187500.02, 0.000, 0.000, 0.000, 02:35:48.970
104, 29453.21, 8448.91, -187500.02, -187500.02, -187500.02, -187500.02, -187500.02, -187500.02, 0.000, 0.000, 0.000, 02:35:48.970
105, 29471.20, 8458.03, -187500.02, -187500.02, -187500.02, -187500.02, -187500.02, -187500.02, 0.000, 0.000, 0.000, 02:35:48.970
106, 29493.15, 8471.15, -187500.02, -187500.02, -187500.02, -187500.02, -187500.02, -187500.02, 0.204, 0.998, -0.086, 02:35:48.970
107, 29489.95, 8476.18, -187500.02, -187500.02, -187500.02, -187500.02, -187500.02, -187500.02, 0.000, 0.000, 0.000, 02:35:48.971
108, 29476.25, 8468.38, -187500.02, -187500.02, -187500.02, -187500.02, -187500.02, -187500.02, 0.000, 0.000, 0.000, 02:35:48.971
109, 29479.63, 8466.33, -187500.02, -187500.02, -187500.02, -187500.02, -187500.02, -187500.02, 0.000, 0.000, 0.000, 02:35:48.971
110, 29484.65, 8471.45, -187500.02, -187500.02, -187500.02, -187500.02, -187500.02, -187500.02, 0.000, 0.000, 0.000, 02:35:48.971
111, 29486.29, 8469.97, -187500.02, -187500.02, -187500.02, -187500.02, -187500.02, -187500.02, 0.000, 0.000, 0.000, 02:35:48.971
112, 29477.55, 8465.86, -187500.02, -187500.02, -187500.02, -187500.02, -187500.02, -187500.02, 0.000, 0.000, 0.000, 02:35:48.971
113, 29478.64, 8452.45, -187500.02, -187500.02, -187500.02, -187500.02, -187500.02, -187500.02, 0.000, 0.000, 0.000, 02:35:48.971
114, 29496.99, 8481.44, -187500.02, -187500.02, -187500.02, -187500.02, -187500.02, -187500.02, 0.000, 0.000, 0.000, 02:35:48.971
115, 29490.13, 8460.56, -187500.02, -187500.02, -187500.02, -187500.02, -187500.02, -187500.02, 0.000, 0.000, 0.000, 02:35:48.971
116, 29462.86, 8463.13, -187500.02, -187500.02, -187500.02, -187500.02, -187500.02, -187500.02, 0.206, 0.996, -0.084, 02:35:48.972
117, 29449.61, 8456.40, -187500.02, -187500.02, -187500.02, -187500.02, -187500.02, -187500.02, 0.000, 0.000, 0.000, 02:35:48.972
118, 29491.31, 8488.39, -187500.02, -187500.02, -187500.02, -187500.02, -187500.02, -187500.02, 0.000, 0.000, 0.000, 02:35:48.972
119, 29498.40, 8496.08, -187500.02, -187500.02, -187500.02, -187500.02, -187500.02, -187500.02, 0.000, 0.000, 0.000, 02:35:48.972
120, 29478.42, 8459.67, -187500.02, -187500.02, -187500.02, -187500.02, -187500.02, -187500.02, 0.000, 0.000, 0.000, 02:35:48.972
121, 29452.56, 8416.30, -187500.02, -187500.02, -187500.02, -187500.02, -187500.02, -187500.02, 0.000, 0.000, 0.000, 02:35:48.972
122, 29485.41, 8455.13, -187500.02, -187500.02, -187500.02, -187500.02, -187500.02, -187500.02, 0.000, 0.000, 0.000, 02:35:48.972
123, 29499.72, 8498.60, -187500.02, -187500.02, -187500.02, -187500.02, -187500.02, -187500.02, 0.000, 0.000, 0.000, 02:35:48.972
124, 29489.17, 8485.57, -187500.02, -187500.02, -187500.02, -187500.02, -187500.02, -187500.02, 0.000, 0.000, 0.000, 02:35:48.972
125, 29448.20, 8439.86, -187500.02, -187500.02, -187500.02, -187500.02, -187500.02, -187500.02, 0.000, 0.000, 0.000, 02:35:48.973
126, 29486.58, 8471.83, -187500.02, -187500.02, -187500.02, -187500.02, -187500.02, -187500.02, 0.206, 0.998, -0.092, 02:35:48.973
127, 29493.77, 8486.85, -187500.02, -187500.02, -187500.02, -187500.02, -187500.02, -187500.02, 0.000, 0.000, 0.000, 02:35:48.973
128, 29483.83, 8478.53, -187500.02, -187500.02, -187500.02, -187500.02, -187500.02, -187500.02, 0.000, 0.000, 0.000, 02:35:48.973
129, 29461.61, 8445.11, -187500.02, -187500.02, -187500.02, -187500.02, -187500.02, -187500.02, 0.000, 0.000, 0.000, 02:35:48.973
130, 29483.43, 8455.46, -187500.02, -187500.02, -187500.02, -187500.02, -187500.02, -187500.02, 0.000, 0.000, 0.000, 02:35:48.973
131, 29514.43, 8476.65, -187500.02, -187500.02, -187500.02, -187500.02, -187500.02, -187500.02, 0.000, 0.000, 0.000, 02:35:48.973
132, 29490.87, 8470.46, -187500.02, -187500.02, -187500.02, -187500.02, -187500.02, -187500.02, 0.000, 0.000, 0.000, 02:35:48.974
133, 29445.70, 8443.13, -187500.02, -187500.02, -187500.02, -187500.02, -187500.02, -187500.02, 0.000, 0.000, 0.000, 02:35:48.974
134, 29460.18, 8428.19, -187500.02, -187500.02, -187500.02, -187500.02, -187500.02, -187500.02, 0.000, 0.000, 0.000, 02:35:48.974
135, 29499.45, 8447.71, -187500.02, -187500.02, -187500.02, -187500.02, -187500.02, -187500.02, 0.000, 0.000, 0.000, 02:35:48.974
136, 29504.14, 8447.53, -187500.02, -187500.02, -187500.02, -187500.02, -187500.02, -187500.02, 0.206, 0.994, -0.088, 02:35:48.974
137, 29483.20, 8480.88, -187500.02, -187500.02, -187500.02, -187500.02, -187500.02, -187500.02, 0.000, 0.000, 0.000, 02:35:48.974
138, 29460.51, 8447.82, -187500.02, -187500.02, -187500.02, -187500.02, -187500.02, -187500.02, 0.000, 0.000, 0.000, 02:35:48.974
139, 29497.75, 8477.64, -187500.02, -187500.02, -187500.02, -187500.02, -187500.02, -187500.02, 0.000, 0.000, 0.000, 02:35:48.975
140, 29490.06, 8473.19, -187500.02, -187500.02, -187500.02, -187500.02, -187500.02, -187500.02, 0.000, 0.000, 0.000, 02:35:48.975
141, 29453.65, 8438.43, -187500.02, -187500.02, -187500.02, -187500.02, -187500.02, -187500.02, 0.000, 0.000, 0.000, 02:35:48.975
142, 29443.77, 8427.08, -187500.02, -187500.02, -187500.02, -187500.02, -187500.02, -187500.02, 0.000, 0.000, 0.000, 02:35:48.975
143, 29490.91, 8468.76, -187500.02, -187500.02, -187500.02, -187500.02, -187500.02, -187500.02, 0.000, 0.000, 0.000, 02:35:48.975
144, 29492.70, 8483.98, -187500.02, -187500.02, -187500.02, -187500.02, -187500.02, -187500.02, 0.000, 0.000, 0.000, 02:35:48.975
145, 29479.22, 8458.12, -187500.02, -187500.02, -187500.02, -187500.02, -187500.02, -187500.02, 0.204, 0.996, -0.086, 02:35:48.975
146, 29459.08, 8428.87, -187500.02, -187500.02, -187500.02, -187500.02, -187500.02, -187500.02, 0.000, 0.000, 0.000, 02:35:48.975
147, 29492.79, 8470.01, -187500.02, -187500.02, -187500.02, -187500.02, -187500.02, -187500.02, 0.000, 0.000, 0.000, 02:35:48.976
148, 29498.47, 8473.50, -187500.02, -187500.02, -187500.02, -187500.02, -187500.02, -187500.02, 0.000, 0.000, 0.000, 02:35:48.976
149, 29481.50, 8461.86, -187500.02, -187500.02, -187500.02, -187500.02, -187500.02, -187500.02, 0.000, 0.000, 0.000, 02:35:48.976
150, 29453.90, 8417.53, -187500.02, -187500.02, -187500.02, -187500.02, -187500.02, -187500.02, 0.000, 0.000, 0.000, 02:35:48.976
151, 29471.78, 8433.36, -187500.02, -187500.02, -187500.02, -187500.02, -187500.02, -187500.02, 0.000, 0.000, 0.000, 02:35:48.976
152, 29490.96, 8486.98, -187500.02, -187500.02, -187500.02, -187500.02, -187500.02, -187500.02, 0.000, 0.000, 0.000, 02:35:48.976
153, 29468.16, 8469.84, -187500.02, -187500.02, -187500.02, -187500.02, -187500.02, -187500.02, 0.000, 0.000, 0.000, 02:35:48.976
154, 29443.35, 8434.52, -187500.02, -187500.02, -187500.02, -187500.02, -187500.02, -187500.02, 0.000, 0.000, 0.000, 02:35:48.976
155, 29484.70, 8456.13, -187500.02, -187500.02, -187500.02, -187500.02, -187500.02, -187500.02, 0.204, 0.998, -0.086, 02:35:48.977
