%OpenBCI Raw EEG Data
%
%Sample Rate = 250.0 Hz
%First Column = SampleIndex
%Last Column = Timestamp 
%Other Columns = EEG data in microvolts followed by Accel Data (in G) interleaved with Aux Data
0, 0.00, 0.00, 0.00, 0.00, 0.00, 0.00, 0.00, 0.00, 0.210, 0.996, -0.092, 02:37:39.232
1, 29556.16, 8461.43, -187500.02, -187500.02, -187500.02, -187500.02, -187500.02, -187500.02, 0.000, 0.000, 0.000, 02:37:39.725
2, 29543.82, 8438.05, -187500.02, -187500.02, -187500.02, -187500.02, -187500.02, -187500.02, 0.000, 0.000, 0.000, 02:37:39.726
3, 29570.44, 8456.38, -187500.02, -187500.02, -187500.02, -187500.02, -187500.02, -187500.02, 0.000, 0.000, 0.000, 02:37:39.726
4, 29578.02, 8455.64, -187500.02, -187500.02, -187500.02, -187500.02, -187500.02, -187500.02, 0.000, 0.000, 0.000, 02:37:39.727
5, 29550.77, 8449.88, -187500.02, -187500.02, -187500.02, -187500.02, -187500.02, -187500.02, 0.000, 0.000, 0.000, 02:37:39.727
6, 29532.15, 8438.34, -187500.02, -187500.02, -187500.02, -187500.02, -187500.02, -187500.02, 0.000, 0.000, 0.000, 02:37:39.727
7, 29548.96, 8450.90, -187500.02, -187500.02, -187500.02, -187500.02, -187500.02, -187500.02, 0.214, 0.994, -0.090, 02:37:39.728
8, 29564.41, 8457.43, -187500.02, -187500.02, -187500.02, -187500.02, -187500.02, -187500.02, 0.000, 0.000, 0.000, 02:37:39.728
9, 29569.35, 8453.50, -187500.02, -187500.02, -187500.02, -187500.02, -187500.02, -187500.02, 0.000, 0.000, 0.000, 02:37:39.728
10, 29536.64, 8447.42, -187500.02, -187500.02, -187500.02, -187500.02, -187500.02, -187500.02, 0.000, 0.000, 0.000, 02:37:39.728
11, 29548.92, 8437.54, -187500.02, -187500.02, -187500.02, -187500.02, -187500.02, -187500.02, 0.000, 0.000, 0.000, 02:37:39.728
12, 29571.20, 8459.33, -187500.02, -187500.02, -187500.02, -187500.02, -187500.02, -187500.02, 0.000, 0.000, 0.000, 02:37:39.728
13, 29541.45, 8457.48, -187500.02, -187500.02, -187500.02, -187500.02, -187500.02, -187500.02, 0.000, 0.000, 0.000, 02:37:39.729
14, 29521.54, 8431.23, -187500.02, -187500.02, -187500.02, -187500.02, -187500.02, -187500.02, 0.000, 0.000, 0.000, 02:37:39.729
15, 29542.84, 8441.27, -187500.02, -187500.02, -187500.02, -187500.02, -187500.02, -187500.02, 0.000, 0.000, 0.000, 02:37:39.729
16, 29553.16, 8458.17, -187500.02, -187500.02, -187500.02, -187500.02, -187500.02, -187500.02, 0.000, 0.000, 0.000, 02:37:39.729
17, 29549.97, 8443.55, -187500.02, -187500.02, -187500.02, -187500.02, -187500.02, -187500.02, 0.222, 0.996, -0.088, 02:37:39.729
18, 29525.00, 8428.02, -187500.02, -187500.02, -187500.02, -187500.02, -187500.02, -187500.02, 0.000, 0.000, 0.000, 02:37:39.729
19, 29546.55, 8431.39, -187500.02, -187500.02, -187500.02, -187500.02, -187500.02, -187500.02, 0.000, 0.000, 0.000, 02:37:39.729
20, 29574.73, 8448.36, -187500.02, -187500.02, -187500.02, -187500.02, -187500.02, -187500.02, 0.000, 0.000, 0.000, 02:37:39.729
21, 29562.04, 8452.98, -187500.02, -187500.02, -187500.02, -187500.02, -187500.02, -187500.02, 0.000, 0.000, 0.000, 02:37:39.730
22, 29535.59, 8435.17, -187500.02, -187500.02, -187500.02, -187500.02, -187500.02, -187500.02, 0.000, 0.000, 0.000, 02:37:39.730
23, 29531.46, 8421.22, -187500.02, -187500.02, -187500.02, -187500.02, -187500.02, -187500.02, 0.000, 0.000, 0.000, 02:37:39.730
24, 29548.40, 8436.29, -187500.02, -187500.02, -187500.02, -187500.02, -187500.02, -187500.02, 0.000, 0.000, 0.000, 02:37:39.730
25, 29554.62, 8436.62, -187500.02, -187500.02, -187500.02, -187500.02, -187500.02, -187500.02, 0.000, 0.000, 0.000, 02:37:39.730
26, 29535.55, 8417.00, -187500.02, -187500.02, -187500.02, -187500.02, -187500.02, -187500.02, 0.000, 0.000, 0.000, 02:37:39.730
27, 29513.82, 8403.00, -187500.02, -187500.02, -187500.02, -187500.02, -187500.02, -187500.02, 0.220, 0.994, -0.094, 02:37:39.730
28, 29552.56, 8423.68, -187500.02, -187500.02, -187500.02, -187500.02, -187500.02, -187500.02, 0.000, 0.000, 0.000, 02:37:39.731
29, 29555.85, 8452.51, -187500.02, -187500.02, -187500.02, -187500.02, -187500.02, -187500.02, 0.000, 0.000, 0.000, 02:37:39.731
30, 29548.58, 8445.23, -187500.02, -187500.02, -187500.02, -187500.02, -187500.02, -187500.02, 0.000, 0.000, 0.000, 02:37:39.731
31, 29523.17, 8418.72, -187500.02, -187500.02, -187500.02, -187500.02, -187500.02, -187500.02, 0.000, 0.000, 0.000, 02:37:39.731
32, 29551.20, 8436.80, -187500.02, -187500.02, -187500.02, -187500.02, -187500.02, -187500.02, 0.000, 0.000, 0.000, 02:37:39.731
33, 29569.88, 8461.45, -187500.02, -187500.02, -187500.02, -187500.02, -187500.02, -187500.02, 0.000, 0.000, 0.000, 02:37:39.731
34, 29559.11, 8445.85, -187500.02, -187500.02, -187500.02, -187500.02, -187500.02, -187500.02, 0.000, 0.000, 0.000, 02:37:39.731
35, 29534.59, 8433.25, -187500.02, -187500.02, -187500.02, -187500.02, -187500.02, -187500.02, 0.000, 0.000, 0.000, 02:37:39.731
36, 29544.78, 8429.16, -187500.02, -187500.02, -187500.02, -187500.02, -187500.02, -187500.02, 0.000, 0.000, 0.000, 02:37:39.732
37, 29568.12, 8441.49, -187500.02, -187500.02, -187500.02, -187500.02, -187500.02, -187500.02, 0.220, 0.986, -0.090, 02:37:39.732
38, 29550.82, 8434.52, -187500.02, -187500.02, -187500.02, -187500.02, -187500.02, -187500.02, 0.000, 0.000, 0.000, 02:37:39.732
39, 29514.47, 8413.46, -187500.02, -187500.02, -187500.02, -187500.02, -187500.02, -187500.02, 0.000, 0.000, 0.000, 02:37:39.732
40, 29525.69, 8399.81, -187500.02, -187500.02, -187500.02, -187500.02, -187500.02, -187500.02, 0.000, 0.000, 0.000, 02:37:39.732
41, 29563.27, 8424.19, -187500.02, -187500.02, -187500.02, -187500.02, -187500.02, -187500.02, 0.000, 0.000, 0.000, 02:37:39.732
42, 29559.44, 8435.66, -187500.02, -187500.02, -187500.02, -187500.02, -187500.02, -187500.02, 0.000, 0.000, 0.000, 02:37:39.732
43, 29528.71, 8424.24, -187500.02, -187500.02, -187500.02, -187500.02, -187500.02, -187500.02, 0.000, 0.000, 0.000, 02:37:39.732
44, 29532.85, 8412.30, -187500.02, -187500.02, -187500.02, -187500.02, -187500.02, -187500.02, 0.000, 0.000, 0.000, 02:37:39.732
45, 29556.96, 8421.65, -187500.02, -187500.02, -187500.02, -187500.02, -187500.02, -187500.02, 0.000, 0.000, 0.000, 02:37:39.733
46, 29558.75, 8447.84, -187500.02, -187500.02, -187500.02, -187500.02, -187500.02, -187500.02, 0.000, 0.000, 0.000, 02:37:39.733
47, 29528.96, 8419.46, -187500.02, -187500.02, -187500.02, -187500.02, -187500.02, -187500.02, 0.222, 0.988, -0.084, 02:37:39.733
48, 29516.13, 8374.33, -187500.02, -187500.02, -187500.02, -187500.02, -187500.02, -187500.02, 0.000, 0.000, 0.000, 02:37:39.733
49, 29563.53, 8429.56, -187500.02, -187500.02, -187500.02, -187500.02, -187500.02, -187500.02, 0.000, 0.000, 0.000, 02:37:39.733
50, 29576.25, 8453.52, -187500.02, -187500.02, -187500.02, -187500.02, -187500.02, -187500.02, 0.000, 0.000, 0.000, 02:37:39.733
51, 29551.73, 8431.23, -187500.02, -187500.02, -187500.02, -187500.02, -187500.02, -187500.02, 0.000, 0.000, 0.000, 02:37:39.733
52, 29526.92, 8406.25, -187500.02, -187500.02, -187500.02, -187500.02, -187500.02, -187500.02, 0.000, 0.000, 0.000, 02:37:39.733
53, 29558.73, 8423.84, -187500.02, -187500.02, -187500.02, -187500.02, -187500.02, -187500.02, 0.000, 0.000, 0.000, 02:37:39.734
54, 29561.52, 8439.68, -187500.02, -187500.02, -187500.02, -187500.02, -187500.02, -187500.02, 0.000, 0.000, 0.000, 02:37:39.734
55, 29536.51, 8420.26, -187500.02, -187500.02, -187500.02, -187500.02, -187500.02, -187500.02, 0.000, 0.000, 0.000, 02:37:39.734
56, 29548.54, 8410.78, -187500.02, -187500.02, -187500.02, -187500.02, -187500.02, -187500.02, 0.000, 0.000, 0.000, 02:37:39.734
57, 29591.09, 8440.60, -187500.02, -187500.02, -187500.02, -187500.02, -187500.02, -187500.02, 0.218, 0.990, -0.084, 02:37:39.734
58, 29589.19, 8452.38, -187500.02, -187500.02, -187500.02, -187500.02, -187500.02, -187500.02, 0.000, 0.000, 0.000, 02:37:39.734
59, 29555.82, 8449.79, -187500.02, -187500.02, -187500.02, -187500.02, -187500.02, -187500.02, 0.000, 0.000, 0.000, 02:37:39.734
60, 29533.52, 8412.06, -187500.02, -187500.02, -187500.02, -187500.02, -187500.02, -187500.02, 0.000, 0.000, 0.000, 02:37:39.734
61, 29545.41, 8415.14, -187500.02, -187500.02, -187500.02, -187500.02, -187500.02, -187500.02, 0.000, 0.000, 0.000, 02:37:39.734
62, 29572.90, 8438.25, -187500.02, -187500.02, -187500.02, -187500.02, -187500.02, -187500.02, 0.000, 0.000, 0.000, 02:37:39.734
63, 29564.34, 8423.43, -187500.02, -187500.02, -187500.02, -187500.02, -187500.02, -187500.02, 0.000, 0.000, 0.000, 02:37:39.735
64, 29538.14, 8393.64, -187500.02, -187500.02, -187500.02, -187500.02, -187500.02, -187500.02, 0.000, 0.000, 0.000, 02:37:39.742
65, 29556.72, 8426.79, -187500.02, -187500.02, -187500.02, -187500.02, -187500.02, -187500.02, 0.000, 0.000, 0.000, 02:37:39.742
66, 29577.46, 8436.87, -187500.02, -187500.02, -187500.02, -187500.02, -187500.02, -187500.02, 0.000, 0.000, 0.000, 02:37:39.742
67, 29560.72, 8423.32, -187500.02, -187500.02, -187500.02, -187500.02, -187500.02, -187500.02, 0.220, 0.996, -0.078, 02:37:39.742
68, 29542.54, 8392.77, -187500.02, -187500.02, -187500.02, -187500.02, -187500.02, -187500.02, 0.000, 0.000, 0.000, 02:37:39.742
69, 29536.33, 8407.25, -187500.02, -187500.02, -187500.02, -187500.02, -187500.02, -187500.02, 0.000, 0.000, 0.000, 02:37:39.742
70, 29563.11, 8432.42, -187500.02, -187500.02, -187500.02, -187500.02, -187500.02, -187500.02, 0.000, 0.000, 0.000, 02:37:39.743
71, 29571.65, 8434.30, -187500.02, -187500.02, -187500.02, -187500.02, -187500.02, -187500.02, 0.000, 0.000, 0.000, 02:37:39.743
72, 29545.45, 8408.64, -187500.02, -187500.02, -187500.02, -187500.02, -187500.02, -187500.02, 0.000, 0.000, 0.000, 02:37:39.743
73, 29525.31, 8382.64, -187500.02, -187500.02, -187500.02, -187500.02, -187500.02, -187500.02, 0.000, 0.000, 0.000, 02:37:39.743
74, 29579.38, 8415.74, -187500.02, -187500.02, -187500.02, -187500.02, -187500.02, -187500.02, 0.000, 0.000, 0.000, 02:37:39.743
75, 29571.47, 8421.29, -187500.02, -187500.02, -187500.02, -187500.02, -187500.02, -187500.02, 0.000, 0.000, 0.000, 02:37:39.743
76, 29537.81, 8412.77, -187500.02, -187500.02, -187500.02, -187500.02, -187500.02, -187500.02, 0.214, 0.996, -0.082, 02:37:39.743
77, 29507.86, 8381.70, -187500.02, -187500.02, -187500.02, -187500.02, -187500.02, -187500.02, 0.000, 0.000, 0.000, 02:37:39.743
78, 29543.19, 8404.77, -187500.02, -187500.02, -187500.02, -187500.02, -187500.02, -187500.02, 0.000, 0.000, 0.000, 02:37:39.743
79, 29560.61, 8426.14, -187500.02, -187500.02, -187500.02, -187500.02, -187500.02, -187500.02, 0.000, 0.000, 0.000, 02:37:39.744
80, 29556.25, 8412.44, -187500.02, -187500.02, -187500.02, -187500.02, -187500.02, -187500.02, 0.000, 0.000, 0.000, 02:37:39.744
81, 29543.28, 8384.90, -187500.02, -187500.02, -187500.02, -187500.02, -187500.02, -187500.02, 0.000, 0.000, 0.000, 02:37:39.744
82, 29556.56, 8390.53, -187500.02, -187500.02, -187500.02, -187500.02, -187500.02, -187500.02, 0.000, 0.000, 0.000, 02:37:39.744
83, 29561.97, 8396.97, -187500.02, -187500.02, -187500.02, -187500.02, -187500.02, -187500.02, 0.000, 0.000, 0.000, 02:37:39.744
84, 29562.51, 8418.52, -187500.02, -187500.02, -187500.02, -187500.02, -187500.02, -187500.02, 0.000, 0.000, 0.000, 02:37:39.744
85, 29537.27, 8396.39, -187500.02, -187500.02, -187500.02, -187500.02, -187500.02, -187500.02, 0.000, 0.000, 0.000, 02:37:39.744
86, 29549.09, 8401.55, -187500.02, -187500.02, -187500.02, -187500.02, -187500.02, -187500.02, 0.216, 0.996, -0.078, 02:37:39.744
87, 29578.91, 8440.60, -187500.02, -187500.02, -187500.02, -187500.02, -187500.02, -187500.02, 0.000, 0.000, 0.000, 02:37:39.745
88, 29575.58, 8436.60, -187500.02, -187500.02, -187500.02, -187500.02, -187500.02, -187500.02, 0.000, 0.000, 0.000, 02:37:39.745
89, 29558.01, 8402.56, -187500.02, -187500.02, -187500.02, -187500.02, -187500.02, -187500.02, 0.000, 0.000, 0.000, 02:37:39.745
90, 29572.43, 8400.19, -187500.02, -187500.02, -187500.02, -187500.02, -187500.02, -187500.02, 0.000, 0.000, 0.000, 02:37:39.745
91, 29601.73, 8430.88, -187500.02, -187500.02, -187500.02, -187500.02, -187500.02, -187500.02, 0.000, 0.000, 0.000, 02:37:39.745
92, 29585.08, 8426.00, -187500.02, -187500.02, -187500.02, -187500.02, -187500.02, -187500.02, 0.000, 0.000, 0.000, 02:37:39.745
93, 29550.90, 8404.10, -187500.02, -187500.02, -187500.02, -187500.02, -187500.02, -187500.02, 0.000, 0.000, 0.000, 02:37:39.745
94, 29546.05, 8382.02, -187500.02, -187500.02, -187500.02, -187500.02, -187500.02, -187500.02, 0.000, 0.000, 0.000, 02:37:39.745
95, 29572.32, 8412.24, -187500.02, -187500.02, -187500.02, -187500.02, -187500.02, -187500.02, 0.000, 0.000, 0.000, 02:37:39.745
96, 29570.35, 8414.63, -187500.02, -187500.02, -187500.02, -187500.02, -187500.02, -187500.02, 0.220, 0.986, -0.080, 02:37:39.746
97, 29549.07, 8389.91, -187500.02, -187500.02, -187500.02, -187500.02, -187500.02, -187500.02, 0.000, 0.000, 0.000, 02:37:39.746
98, 29529.07, 8372.96, -187500.02, -187500.02, -187500.02, -187500.02, -187500.02, -187500.02, 0.000, 0.000, 0.000, 02:37:39.746
99, 29575.25, 8400.19, -187500.02, -187500.02, -187500.02, -187500.02, -187500.02, -187500.02, 0.000, 0.000, 0.000, 02:37:39.746
100, 29590.76, 8404.43, -187500.02, -187500.02, -187500.02, -187500.02, -187500.02, -187500.02, 0.000, 0.000, 0.000, 02:37:39.746
101, 29568.29, 8403.32, -187500.02, -187500.02, -187500.02, -187500.02, -187500.02, -187500.02, 0.000, 0.000, 0.000, 02:37:39.746
102, 29555.06, 8407.92, -187500.02, -187500.02, -187500.02, -187500.02, -187500.02, -187500.02, 0.000, 0.000, 0.000, 02:37:39.746
103, 29573.70, 8408.48, -187500.02, -187500.02, -187500.02, -187500.02, -187500.02, -187500.02, 0.000, 0.000, 0.000, 02:37:39.746
104, 29591.50, 8427.21, -187500.02, -187500.02, -187500.02, -187500.02, -187500.02, -187500.02, 0.000, 0.000, 0.000, 02:37:39.746
105, 29578.38, 8421.09, -187500.02, -187500.02, -187500.02, -187500.02, -187500.02, -187500.02, 0.000, 0.000, 0.000, 02:37:39.747
106, 29546.93, 8376.36, -187500.02, -187500.02, -187500.02, -187500.02, -187500.02, -187500.02, 0.218, 0.988, -0.078, 02:37:39.747
107, 29584.14, 8393.59, -187500.02, -187500.02, -187500.02, -187500.02, -187500.02, -187500.02, 0.000, 0.000, 0.000, 02:37:39.747
108, 29611.05, 8426.18, -187500.02, -187500.02, -187500.02, -187500.02, -187500.02, -187500.02, 0.000, 0.000, 0.000, 02:37:39.747
109, 29593.46, 8432.26, -187500.02, -187500.02, -187500.02, -187500.02, -187500.02, -187500.02, 0.000, 0.000, 0.000, 02:37:39.747
110, 29551.66, 8393.17, -187500.02, -187500.02, -187500.02, -187500.02, -187500.02, -187500.02, 0.000, 0.000, 0.000, 02:37:39.747
111, 29568.99, 8385.61, -187500.02, -187500.02, -187500.02, -187500.02, -187500.02, -187500.02, 0.000, 0.000, 0.000, 02:37:39.747
112, 29597.49, 8417.85, -187500.02, -187500.02, -187500.02, -187500.02, -187500.02, -187500.02, 0.000, 0.000, 0.000, 02:37:39.747
113, 29596.93, 8421.87, -187500.02, -187500.02, -187500.02, -187500.02, -187500.02, -187500.02, 0.000, 0.000, 0.000, 02:37:39.747
114, 29565.97, 8394.49, -187500.02, -187500.02, -187500.02, -187500.02, -187500.02, -187500.02, 0.000, 0.000, 0.000, 02:37:39.747
115, 29557.86, 8378.62, -187500.02, -187500.02, -187500.02, -187500.02, -187500.02, -187500.02, 0.000, 0.000, 0.000, 02:37:39.748
116, 29580.12, 8400.14, -187500.02, -187500.02, -187500.02, -187500.02, -187500.02, -187500.02, 0.216, 0.990, -0.080, 02:37:39.748
117, 29582.55, 8417.53, -187500.02, -187500.02, -187500.02, -187500.02, -187500.02, -187500.02, 0.000, 0.000, 0.000, 02:37:39.748
118, 29562.64, 8391.74, -187500.02, -187500.02, -187500.02, -187500.02, -187500.02, -187500.02, 0.000, 0.000, 0.000, 02:37:39.748
119, 29560.65, 8367.89, -187500.02, -187500.02, -187500.02, -187500.02, -187500.02, -187500.02, 0.000, 0.000, 0.000, 02:37:39.748
120, 29585.95, 8383.40, -187500.02, -187500.02, -187500.02, -187500.02, -187500.02, -187500.02, 0.000, 0.000, 0.000, 02:37:39.748
121, 29594.89, 8420.15, -187500.02, -187500.02, -187500.02, -187500.02, -187500.02, -187500.02, 0.000, 0.000, 0.000, 02:37:39.749
122, 29578.69, 8396.90, -187500.02, -187500.02, -187500.02, -187500.02, -187500.02, -187500.02, 0.000, 0.000, 0.000, 02:37:40.206
123, 29554.77, 8373.66, -187500.02, -187500.02, -187500.02, -187500.02, -187500.02, -187500.02, 0.000, 0.000, 0.000, 02:37:40.206
124, 29580.86, 8386.80, -187500.02, -187500.02, -187500.02, -187500.02, -187500.02, -187500.02, 0.000, 0.000, 0.000, 02:37:40.206
125, 29592.86, 8389.24, -187500.02, -187500.02, -187500.02, -187500.02, -187500.02, -187500.02, 0.000, 0.000, 0.000, 02:37:40.206
126, 29590.54, 8396.75, -187500.02, -187500.02, -187500.02, -187500.02, -187500.02, -187500.02, 0.218, 0.996, -0.090, 02:37:40.206
127, 29567.51, 8373.70, -187500.02, -187500.02, -187500.02, -187500.02, -187500.02, -187500.02, 0.000, 0.000, 0.000, 02:37:40.206
128, 29570.69, 8376.70, -187500.02, -187500.02, -187500.02, -187500.02, -187500.02, -187500.02, 0.000, 0.000, 0.000, 02:37:40.207
129, 29594.24, 8404.21, -187500.02, -187500.02, -187500.02, -187500.02, -187500.02, -187500.02, 0.000, 0.000, 0.000, 02:37:40.207
130, 29587.54, 8405.02, -187500.02, -187500.02, -187500.02, -187500.02, -187500.02, -187500.02, 0.000, 0.000, 0.000, 02:37:40.207
131, 29564.34, 8397.82, -187500.02, -187500.02, -187500.02, -187500.02, -187500.02, -187500.02, 0.000, 0.000, 0.000, 02:37:40.207
132, 29573.95, 8390.11, -187500.02, -187500.02, -187500.02, -187500.02, -187500.02, -187500.02, 0.000, 0.000, 0.000, 02:37:40.207
133, 29594.87, 8402.83, -187500.02, -187500.02, -187500.02, -187500.02, -187500.02, -187500.02, 0.000, 0.000, 0.000, 02:37:40.207
134, 29584.12, 8389.28, -187500.02, -187500.02, -187500.02, -187500.02, -187500.02, -187500.02, 0.000, 0.000, 0.000, 02:37:40.207
135, 29559.24, 8367.02, -187500.02, -187500.02, -187500.02, -187500.02, -187500.02, -187500.02, 0.218, 0.992, -0.084, 02:37:40.208
136, 29569.68, 8371.13, -187500.02, -187500.02, -187500.02, -187500.02, -187500.02, -187500.02, 0.000, 0.000, 0.000, 02:37:40.208
137, 29599.07, 8423.70, -187500.02, -187500.02, -187500.02, -187500.02, -187500.02, -187500.02, 0.000, 0.000, 0.000, 02:37:40.208
138, 29592.66, 8430.92, -187500.02, -187500.02, -187500.02, -187500.02, -187500.02, -187500.02, 0.000, 0.000, 0.000, 02:37:40.208
139, 29563.98, 8420.50, -187500.02, -187500.02, -187500.02, -187500.02, -187500.02, -187500.02, 0.000, 0.000, 0.000, 02:37:40.208
140, 29562.88, 8414.90, -187500.02, -187500.02, -187500.02, -187500.02, -187500.02, -187500.02, 0.000, 0.000, 0.000, 02:37:40.208
141, 29590.91, 8435.62, -187500.02, -187500.02, -187500.02, -187500.02, -187500.02, -187500.02, 0.000, 0.000, 0.000, 02:37:40.208
142, 29584.57, 8427.32, -187500.02, -187500.02, -187500.02, -187500.02, -187500.02, -187500.02, 0.000, 0.000, 0.000, 02:37:40.208
143, 29575.20, 8419.83, -187500.02, -187500.02, -187500.02, -187500.02, -187500.02, -187500.02, 0.000, 0.000, 0.000, 02:37:40.209
144, 29580.25, 8423.12, -187500.02, -187500.02, -187500.02, -187500.02, -187500.02, -187500.02, 0.000, 0.000, 0.000, 02:37:40.209
145, 29606.61, 8444.58, -187500.02, -187500.02, -187500.02, -187500.02, -187500.02, -187500.02, 0.212, 0.996, -0.088, 02:37:40.209
146, 29618.52, 8464.65, -187500.02, -187500.02, -187500.02, -187500.02, -187500.02, -187500.02, 0.000, 0.000, 0.000, 02:37:40.209
147, 29599.16, 8467.13, -187500.02, -187500.02, -187500.02, -187500.02, -187500.02, -187500.02, 0.000, 0.000, 0.000, 02:37:40.209
148, 29596.62, 8464.23, -187500.02, -187500.02, -187500.02, -187500.02, -187500.02, -187500.02, 0.000, 0.000, 0.000, 02:37:40.209
149, 29624.35, 8477.64, -187500.02, -187500.02, -187500.02, -187500.02, -187500.02, -187500.02, 0.000, 0.000, 0.000, 02:37:40.209
150, 29624.62, 8478.87, -187500.02, -187500.02, -187500.02, -187500.02, -187500.02, -187500.02, 0.000, 0.000, 0.000, 02:37:40.209
151, 29596.57, 8455.64, -187500.02, -187500.02, -187500.02, -187500.02, -187500.02, -187500.02, 0.000, 0.000, 0.000, 02:37:40.210
152, 29571.20, 8405.73, -187500.02, -187500.02, -187500.02, -187500.02, -187500.02, -187500.02, 0.000, 0.000, 0.000, 02:37:40.210
153, 29593.84, 8436.15, -187500.02, -187500.02, -187500.02, -187500.02, -187500.02, -187500.02, 0.000, 0.000, 0.000, 02:37:40.210
154, 29608.30, 8486.29, -187500.02, -187500.02, -187500.02, -187500.02, -187500.02, -187500.02, 0.000, 0.000, 0.000, 02:37:40.210
155, 29596.12, 8474.02, -187500.02, -187500.02, -187500.02, -187500.02, -187500.02, -187500.02, 0.216, 0.992, -0.088, 02:37:40.210
156, 29563.47, 8452.29, -187500.02, -187500.02, -187500.02, -187500.02, -187500.02, -187500.02, 0.000, 0.000, 0.000, 02:37:40.210
157, 29592.90, 8459.38, -187500.02, -187500.02, -187500.02, -187500.02, -187500.02, -187500.02, 0.000, 0.000, 0.000, 02:37:40.210
158, 29607.83, 8472.27, -187500.02, -187500.02, -187500.02, -187500.02, -187500.02, -187500.02, 0.000, 0.000, 0.000, 02:37:40.210
159, 29597.26, 8464.49, -187500.02, -187500.02, -187500.02, -187500.02, -187500.02, -187500.02, 0.000, 0.000, 0.000, 02:37:40.210
160, 29573.50, 8452.67, -187500.02, -187500.02, -187500.02, -187500.02, -187500.02, -187500.02, 0.000, 0.000, 0.000, 02:37:40.211
161, 29588.03, 8469.79, -187500.02, -187500.02, -187500.02, -187500.02, -187500.02, -187500.02, 0.000, 0.000, 0.000, 02:37:40.211
162, 29606.38, 8471.11, -187500.02, -187500.02, -187500.02, -187500.02, -187500.02, -187500.02, 0.000, 0.000, 0.000, 02:37:40.211
163, 29597.46, 8459.62, -187500.02, -187500.02, -187500.02, -187500.02, -187500.02, -187500.02, 0.000, 0.000, 0.000, 02:37:40.211
164, 29577.12, 8444.85, -187500.02, -187500.02, -187500.02, -187500.02, -187500.02, -187500.02, 0.000, 0.000, 0.000, 02:37:40.211
165, 29581.04, 8438.97, -187500.02, -187500.02, -187500.02, -187500.02, -187500.02, -187500.02, 0.216, 0.996, -0.092, 02:37:40.211
166, 29616.53, 8461.90, -187500.02, -187500.02, -187500.02, -187500.02, -187500.02, -187500.02, 0.000, 0.000, 0.000, 02:37:40.211
167, 29603.50, 8481.68, -187500.02, -187500.02, -187500.02, -187500.02, -187500.02, -187500.02, 0.000, 0.000, 0.000, 02:37:40.212
168, 29571.96, 8433.63, -187500.02, -187500.02, -187500.02, -187500.02, -187500.02, -187500.02, 0.000, 0.000, 0.000, 02:37:40.212
169, 29571.18, 8434.32, -187500.02, -187500.02, -187500.02, -187500.02, -187500.02, -187500.02, 0.000, 0.000, 0.000, 02:37:40.212
170, 29612.69, 8469.92, -187500.02, -187500.02, -187500.02, -187500.02, -187500.02, -187500.02, 0.000, 0.000, 0.000, 02:37:40.212
171, 29613.31, 8488.88, -187500.02, -187500.02, -187500.02, -187500.02, -187500.02, -187500.02, 0.000, 0.000, 0.000, 02:37:40.212
172, 29591.94, 8490.85, -187500.02, -187500.02, -187500.02, -187500.02, -187500.02, -187500.02, 0.000, 0.000, 0.000, 02:37:40.212
173, 29571.71, 8462.35, -187500.02, -187500.02, -187500.02, -187500.02, -187500.02, -187500.02, 0.000, 0.000, 0.000, 02:37:40.212
174, 29602.52, 8475.80, -187500.02, -187500.02, -187500.02, -187500.02, -187500.02, -187500.02, 0.000, 0.000, 0.000, 02:37:40.212
175, 29605.15, 8467.58, -187500.02, -187500.02, -187500.02, -187500.02, -187500.02, -187500.02, 0.216, 0.990, -0.090, 02:37:40.212
176, 29583.27, 8452.85, -187500.02, -187500.02, -187500.02, -187500.02, -187500.02, -187500.02, 0.000, 0.000, 0.000, 02:37:40.213
177, 29579.16, 8453.59, -187500.02, -187500.02, -187500.02, -187500.02, -187500.02, -187500.02, 0.000, 0.000, 0.000, 02:37:40.213
178, 29607.43, 8477.19, -187500.02, -187500.02, -187500.02, -187500.02, -187500.02, -187500.02, 0.000, 0.000, 0.000, 02:37:40.213
179, 29606.14, 8483.25, -187500.02, -187500.02, -187500.02, -187500.02, -187500.02, -187500.02, 0.000, 0.000, 0.000, 02:37:40.213
180, 29599.99, 8481.64, -187500.02, -187500.02, -187500.02, -187500.02, -187500.02, -187500.02, 0.000, 0.000, 0.000, 02:37:40.213
181, 29578.40, 8453.47, -187500.02, -187500.02, -187500.02, -187500.02, -187500.02, -187500.02, 0.000, 0.000, 0.000, 02:37:40.213
182, 29580.50, 8447.86, -187500.02, -187500.02, -187500.02, -187500.02, -187500.02, -187500.02, 0.000, 0.000, 0.000, 02:37:40.213
183, 29606.65, 8482.04, -187500.02, -187500.02, -187500.02, -187500.02, -187500.02, -187500.02, 0.000, 0.000, 0.000, 02:37:40.214
184, 29589.69, 8477.03, -187500.02, -187500.02, -187500.02, -187500.02, -187500.02, -187500.02, 0.000, 0.000, 0.000, 02:37:40.214
185, 29567.42, 8448.18, -187500.02, -187500.02, -187500.02, -187500.02, -187500.02, -187500.02, 0.212, 0.986, -0.086, 02:37:40.214
186, 29568.65, 8444.18, -187500.02, -187500.02, -187500.02, -187500.02, -187500.02, -187500.02, 0.000, 0.000, 0.000, 02:37:40.214
187, 29601.69, 8486.80, -187500.02, -187500.02, -187500.02, -187500.02, -187500.02, -187500.02, 0.000, 0.000, 0.000, 02:37:40.214
188, 29593.42, 8484.52, -187500.02, -187500.02, -187500.02, -187500.02, -187500.02, -187500.02, 0.000, 0.000, 0.000, 02:37:40.214
189, 29571.22, 8450.84, -187500.02, -187500.02, -187500.02, -187500.02, -187500.02, -187500.02, 0.000, 0.000, 0.000, 02:37:40.214
190, 29573.70, 8434.34, -187500.02, -187500.02, -187500.02, -187500.02, -187500.02, -187500.02, 0.000, 0.000, 0.000, 02:37:40.214
191, 29592.90, 8458.73, -187500.02, -187500.02, -187500.02, -187500.02, -187500.02, -187500.02, 0.000, 0.000, 0.000, 02:37:40.215
192, 29592.50, 8477.75, -187500.02, -187500.02, -187500.02, -187500.02, -187500.02, -187500.02, 0.000, 0.000, 0.000, 02:37:40.215
193, 29576.83, 8455.02, -187500.02, -187500.02, -187500.02, -187500.02, -187500.02, -187500.02, 0.000, 0.000, 0.000, 02:37:40.215
194, 29562.71, 8421.33, -187500.02, -187500.02, -187500.02, -187500.02, -187500.02, -187500.02, 0.216, 0.986, -0.088, 02:37:40.215
195, 29595.90, 8444.67, -187500.02, -187500.02, -187500.02, -187500.02, -187500.02, -187500.02, 0.000, 0.000, 0.000, 02:37:40.215
196, 29595.56, 8469.75, -187500.02, -187500.02, -187500.02, -187500.02, -187500.02, -187500.02, 0.000, 0.000, 0.000, 02:37:40.215
197, 29586.13, 8460.22, -187500.02, -187500.02, -187500.02, -187500.02, -187500.02, -187500.02, 0.000, 0.000, 0.000, 02:37:40.215
198, 29561.05, 8418.29, -187500.02, -187500.02, -187500.02, -187500.02, -187500.02, -187500.02, 0.000, 0.000, 0.000, 02:37:40.215
199, 29585.51, 8452.74, -187500.02, -187500.02, -187500.02, -187500.02, -187500.02, -187500.02, 0.000, 0.000, 0.000, 02:37:40.215
200, 29595.61, 8492.97, -187500.02, -187500.02, -187500.02, -187500.02, -187500.02, -187500.02, 0.000, 0.000, 0.000, 02:37:40.216
201, 29575.34, 8467.62, -187500.02, -187500.02, -187500.02, -187500.02, -187500.02, -187500.02, 0.000, 0.000, 0.000, 02:37:40.216
202, 29541.54, 8434.09, -187500.02, -187500.02, -187500.02, -187500.02, -187500.02, -187500.02, 0.000, 0.000, 0.000, 02:37:40.216
203, 29572.54, 8439.53, -187500.02, -187500.02, -187500.02, -187500.02, -187500.02, -187500.02, 0.000, 0.000, 0.000, 02:37:40.216
204, 29612.98, 8478.82, -187500.02, -187500.02, -187500.02, -187500.02, -187500.02, -187500.02, 0.214, 0.988, -0.090, 02:37:40.216
205, 29601.24, 8479.71, -187500.02, -187500.02, -187500.02, -187500.02, -187500.02, -187500.02, 0.000, 0.000, 0.000, 02:37:40.216
206, 29567.31, 8428.95, -187500.02, -187500.02, -187500.02, -187500.02, -187500.02, -187500.02, 0.000, 0.000, 0.000, 02:37:40.216
207, 29569.88, 8436.98, -187500.02, -187500.02, -187500.02, -187500.02, -187500.02, -187500.02, 0.000, 0.000, 0.000, 02:37:40.217
208, 29597.42, 8478.73, -187500.02, -187500.02, -187500.02, -187500.02, -187500.02, -187500.02, 0.000, 0.000, 0.000, 02:37:40.217
209, 29595.12, 8482.22, -187500.02, -187500.02, -187500.02, -187500.02, -187500.02, -187500.02, 0.000, 0.000, 0.000, 02:37:40.217
210, 29568.83, 8454.88, -187500.02, -187500.02, -187500.02, -187500.02, -187500.02, -187500.02, 0.000, 0.000, 0.000, 02:37:40.217
211, 29572.45, 8453.29, -187500.02, -187500.02, -187500.02, -187500.02, -187500.02, -187500.02, 0.000, 0.000, 0.000, 02:37:40.217
212, 29592.21, 8467.62, -187500.02, -187500.02, -187500.02, -187500.02, -187500.02, -187500.02, 0.000, 0.000, 0.000, 02:37:40.217
213, 29591.45, 8467.62, -187500.02, -187500.02, -187500.02, -187500.02, -187500.02, -187500.02, 0.000, 0.000, 0.000, 02:37:40.217
214, 29558.68, 8431.35, -187500.02, -187500.02, -187500.02, -187500.02, -187500.02, -187500.02, 0.212, 0.992, -0.086, 02:37:40.217
215, 29562.97, 8425.58, -187500.02, -187500.02, -187500.02, -187500.02, -187500.02, -187500.02, 0.000, 0.000, 0.000, 02:37:40.217
216, 29596.50, 8446.30, -187500.02, -187500.02, -187500.02, -187500.02, -187500.02, -187500.02, 0.000, 0.000, 0.000, 02:37:40.217
217, 29602.09, 8434.97, -187500.02, -187500.02, -187500.02, -187500.02, -187500.02, -187500.02, 0.000, 0.000, 0.000, 02:37:40.217
218, 29594.02, 8457.14, -187500.02, -187500.02, -187500.02, -187500.02, -187500.02, -187500.02, 0.000, 0.000, 0.000, 02:37:40.218
219, 29569.23, 8464.74, -187500.02, -187500.02, -187500.02, -187500.02, -187500.02, -187500.02, 0.000, 0.000, 0.000, 02:37:40.218
220, 29587.70, 8468.49, -187500.02, -187500.02, -187500.02, -187500.02, -187500.02, -187500.02, 0.000, 0.000, 0.000, 02:37:40.218
221, 29589.53, 8474.02, -187500.02, -187500.02, -187500.02, -187500.02, -187500.02, -187500.02, 0.000, 0.000, 0.000, 02:37:40.218
222, 29582.26, 8448.53, -187500.02, -187500.02, -187500.02, -187500.02, -187500.02, -187500.02, 0.000, 0.000, 0.000, 02:37:40.218
223, 29569.81, 8418.23, -187500.02, -187500.02, -187500.02, -187500.02, -187500.02, -187500.02, 0.000, 0.000, 0.000, 02:37:40.218
224, 29588.43, 8456.51, -187500.02, -187500.02, -187500.02, -187500.02, -187500.02, -187500.02, 0.214, 0.990, -0.082, 02:37:40.218
225, 29614.90, 8490.62, -187500.02, -187500.02, -187500.02, -187500.02, -187500.02, -187500.02, 0.000, 0.000, 0.000, 02:37:40.218
226, 29591.03, 8464.23, -187500.02, -187500.02, -187500.02, -187500.02, -187500.02, -187500.02, 0.000, 0.000, 0.000, 02:37:40.218
227, 29562.66, 8445.92, -187500.02, -187500.02, -187500.02, -187500.02, -187500.02, -187500.02, 0.000, 0.000, 0.000, 02:37:40.218
228, 29576.70, 8450.39, -187500.02, -187500.02, -187500.02, -187500.02, -187500.02, -187500.02, 0.000, 0.000, 0.000, 02:37:40.219
229, 29585.17, 8454.28, -187500.02, -187500.02, -187500.02, -187500.02, -187500.02, -187500.02, 0.000, 0.000, 0.000, 02:37:40.219
230, 29592.17, 8457.81, -187500.02, -187500.02, -187500.02, -187500.02, -187500.02, -187500.02, 0.000, 0.000, 0.000, 02:37:40.219
231, 29578.13, 8448.85, -187500.02, -187500.02, -187500.02, -187500.02, -187500.02, -187500.02, 0.000, 0.000, 0.000, 02:37:40.219
232, 29595.14, 8453.05, -187500.02, -187500.02, -187500.02, -187500.02, -187500.02, -187500.02, 0.000, 0.000, 0.000, 02:37:40.219
233, 29630.61, 8484.90, -187500.02, -187500.02, -187500.02, -187500.02, -187500.02, -187500.02, 0.000, 0.000, 0.000, 02:37:40.219
234, 29614.79, 8482.78, -187500.02, -187500.02, -187500.02, -187500.02, -187500.02, -187500.02, 0.212, 0.992, -0.082, 02:37:40.219
235, 29582.94, 8449.54, -187500.02, -187500.02, -187500.02, -187500.02, -187500.02, -187500.02, 0.000, 0.000, 0.000, 02:37:40.220
236, 29573.28, 8436.08, -187500.02, -187500.02, -187500.02, -187500.02, -187500.02, -187500.02, 0.000, 0.000, 0.000, 02:37:40.220
237, 29594.92, 8452.60, -187500.02, -187500.02, -187500.02, -187500.02, -187500.02, -187500.02, 0.000, 0.000, 0.000, 02:37:40.220
238, 29594.63, 8448.65, -187500.02, -187500.02, -187500.02, -187500.02, -187500.02, -187500.02, 0.000, 0.000, 0.000, 02:37:40.220
239, 29566.57, 8402.71, -187500.02, -187500.02, -187500.02, -187500.02, -187500.02, -187500.02, 0.000, 0.000, 0.000, 02:37:40.220
240, 29557.01, 8411.61, -187500.02, -187500.02, -187500.02, -187500.02, -187500.02, -187500.02, 0.000, 0.000, 0.000, 02:37:40.220
241, 29586.73, 8453.52, -187500.02, -187500.02, -187500.02, -187500.02, -187500.02, -187500.02, 0.000, 0.000, 0.000, 02:37:40.220
242, 29583.72, 8461.79, -187500.02, -187500.02, -187500.02, -187500.02, -187500.02, -187500.02, 0.000, 0.000, 0.000, 02:37:40.686
243, 29564.09, 8452.13, -187500.02, -187500.02, -187500.02, -187500.02, -187500.02, -187500.02, 0.000, 0.000, 0.000, 02:37:40.686
244, 29557.50, 8440.89, -187500.02, -187500.02, -187500.02, -187500.02, -187500.02, -187500.02, 0.210, 0.992, -0.082, 02:37:40.686
245, 29599.54, 8467.73, -187500.02, -187500.02, -187500.02, -187500.02, -187500.02, -187500.02, 0.000, 0.000, 0.000, 02:37:40.686
246, 29594.29, 8465.88, -187500.02, -187500.02, -187500.02, -187500.02, -187500.02, -187500.02, 0.000, 0.000, 0.000, 02:37:40.686
247, 29559.80, 8443.80, -187500.02, -187500.02, -187500.02, -187500.02, -187500.02, -187500.02, 0.000, 0.000, 0.000, 02:37:40.687
248, 29544.89, 8427.64, -187500.02, -187500.02, -187500.02, -187500.02, -187500.02, -187500.02, 0.000, 0.000, 0.000, 02:37:40.687
249, 29577.68, 8437.02, -187500.02, -187500.02, -187500.02, -187500.02, -187500.02, -187500.02, 0.000, 0.000, 0.000, 02:37:40.687
250, 29580.23, 8445.23, -187500.02, -187500.02, -187500.02, -187500.02, -187500.02, -187500.02, 0.000, 0.000, 0.000, 02:37:40.687
251, 29568.18, 8432.13, -187500.02, -187500.02, -187500.02, -187500.02, -187500.02, -187500.02, 0.000, 0.000, 0.000, 02:37:40.687
252, 29546.97, 8412.19, -187500.02, -187500.02, -187500.02, -187500.02, -187500.02, -187500.02, 0.000, 0.000, 0.000, 02:37:40.688
253, 29573.12, 8421.47, -187500.02, -187500.02, -187500.02, -187500.02, -187500.02, -187500.02, 0.000, 0.000, 0.000, 02:37:40.688
254, 29588.97, 8436.62, -187500.02, -187500.02, -187500.02, -187500.02, -187500.02, -187500.02, 0.214, 0.994, -0.082, 02:37:40.688
255, 29578.84, 8468.47, -187500.02, -187500.02, -187500.02, -187500.02, -187500.02, -187500.02, 0.000, 0.000, 0.000, 02:37:40.688
0, 29550.21, 8436.87, -187500.02, -187500.02, -187500.02, -187500.02, -187500.02, -187500.02, 0.000, 0.000, 0.000, 02:37:40.688
1, 29561.14, 8430.36, -187500.02, -187500.02, -187500.02, -187500.02, -187500.02, -187500.02, 0.000, 0.000, 0.000, 02:37:40.688
2, 29580.37, 8441.94, -187500.02, -187500.02, -187500.02, -187500.02, -187500.02, -187500.02, 0.000, 0.000, 0.000, 02:37:40.688
3, 29575.18, 8444.94, -187500.02, -187500.02, -187500.02, -187500.02, -187500.02, -187500.02, 0.000, 0.000, 0.000, 02:37:40.689
4, 29557.88, 8428.31, -187500.02, -187500.02, -187500.02, -187500.02, -187500.02, -187500.02, 0.000, 0.000, 0.000, 02:37:40.689
5, 29538.23, 8407.27, -187500.02, -187500.02, -187500.02, -187500.02, -187500.02, -187500.02, 0.000, 0.000, 0.000, 02:37:40.689
6, 29573.39, 8448.20, -187500.02, -187500.02, -187500.02, -187500.02, -187500.02, -187500.02, 0.000, 0.000, 0.000, 02:37:40.689
7, 29581.08, 8459.24, -187500.02, -187500.02, -187500.02, -187500.02, -187500.02, -187500.02, 0.220, 0.992, -0.074, 02:37:40.689
8, 29547.80, 8428.98, -187500.02, -187500.02, -187500.02, -187500.02, -187500.02, -187500.02, 0.000, 0.000, 0.000, 02:37:40.689
9, 29541.09, 8406.56, -187500.02, -187500.02, -187500.02, -187500.02, -187500.02, -187500.02, 0.000, 0.000, 0.000, 02:37:40.689
10, 29583.83, 8426.41, -187500.02, -187500.02, -187500.02, -187500.02, -187500.02, -187500.02, 0.000, 0.000, 0.000, 02:37:40.690
11, 29587.52, 8453.52, -187500.02, -187500.02, -187500.02, -187500.02, -187500.02, -187500.02, 0.000, 0.000, 0.000, 02:37:40.690
12, 29564.27, 8417.29, -187500.02, -187500.02, -187500.02, -187500.02, -187500.02, -187500.02, 0.000, 0.000, 0.000, 02:37:40.690
13, 29548.36, 8413.53, -187500.02, -187500.02, -187500.02, -187500.02, -187500.02, -187500.02, 0.000, 0.000, 0.000, 02:37:40.690
14, 29590.89, 8445.14, -187500.02, -187500.02, -187500.02, -187500.02, -187500.02, -187500.02, 0.000, 0.000, 0.000, 02:37:40.690
15, 29595.14, 8453.25, -187500.02, -187500.02, -187500.02, -187500.02, -187500.02, -187500.02, 0.000, 0.000, 0.000, 02:37:40.690
16, 29581.97, 8439.77, -187500.02, -187500.02, -187500.02, -187500.02, -187500.02, -187500.02, 0.000, 0.000, 0.000, 02:37:40.690
17, 29565.46, 8419.03, -187500.02, -187500.02, -187500.02, -187500.02, -187500.02, -187500.02, 0.218, 0.988, -0.078, 02:37:40.691
18, 29582.94, 8434.01, -187500.02, -187500.02, -187500.02, -187500.02, -187500.02, -187500.02, 0.000, 0.000, 0.000, 02:37:40.691
19, 29583.27, 8445.94, -187500.02, -187500.02, -187500.02, -187500.02, -187500.02, -187500.02, 0.000, 0.000, 0.000, 02:37:40.691
20, 29566.69, 8438.48, -187500.02, -187500.02, -187500.02, -187500.02, -187500.02, -187500.02, 0.000, 0.000, 0.000, 02:37:40.691
21, 29544.42, 8406.27, -187500.02, -187500.02, -187500.02, -187500.02, -187500.02, -187500.02, 0.000, 0.000, 0.000, 02:37:40.691
22, 29560.38, 8413.89, -187500.02, -187500.02, -187500.02, -187500.02, -187500.02, -187500.02, 0.000, 0.000, 0.000, 02:37:40.691
23, 29582.11, 8430.88, -187500.02, -187500.02, -187500.02, -187500.02, -187500.02, -187500.02, 0.000, 0.000, 0.000, 02:37:40.691
24, 29585.84, 8414.83, -187500.02, -187500.02, -187500.02, -187500.02, -187500.02, -187500.02, 0.000, 0.000, 0.000, 02:37:40.691
25, 29556.56, 8407.52, -187500.02, -187500.02, -187500.02, -187500.02, -187500.02, -187500.02, 0.000, 0.000, 0.000, 02:37:40.691
26, 29558.93, 8431.41, -187500.02, -187500.02, -187500.02, -187500.02, -187500.02, -187500.02, 0.000, 0.000, 0.000, 02:37:40.692
27, 29597.80, 8454.73, -187500.02, -187500.02, -187500.02, -187500.02, -187500.02, -187500.02, 0.216, 0.990, -0.082, 02:37:40.692
28, 29580.83, 8446.17, -187500.02, -187500.02, -187500.02, -187500.02, -187500.02, -187500.02, 0.000, 0.000, 0.000, 02:37:40.692
29, 29548.47, 8405.69, -187500.02, -187500.02, -187500.02, -187500.02, -187500.02, -187500.02, 0.000, 0.000, 0.000, 02:37:40.692
30, 29549.03, 8393.95, -187500.02, -187500.02, -187500.02, -187500.02, -187500.02, -187500.02, 0.000, 0.000, 0.000, 02:37:40.692
31, 29577.93, 8431.50, -187500.02, -187500.02, -187500.02, -187500.02, -187500.02, -187500.02, 0.000, 0.000, 0.000, 02:37:40.692
32, 29570.53, 8431.70, -187500.02, -187500.02, -187500.02, -187500.02, -187500.02, -187500.02, 0.000, 0.000, 0.000, 02:37:40.692
33, 29553.99, 8416.66, -187500.02, -187500.02, -187500.02, -187500.02, -187500.02, -187500.02, 0.000, 0.000, 0.000, 02:37:40.692
34, 29544.83, 8418.27, -187500.02, -187500.02, -187500.02, -187500.02, -187500.02, -187500.02, 0.000, 0.000, 0.000, 02:37:40.692
35, 29574.20, 8436.40, -187500.02, -187500.02, -187500.02, -187500.02, -187500.02, -187500.02, 0.000, 0.000, 0.000, 02:37:40.693
36, 29567.36, 8440.69, -187500.02, -187500.02, -187500.02, -187500.02, -187500.02, -187500.02, 0.000, 0.000, 0.000, 02:37:40.693
37, 29549.25, 8422.38, -187500.02, -187500.02, -187500.02, -187500.02, -187500.02, -187500.02, 0.212, 0.992, -0.078, 02:37:40.693
38, 29527.68, 8394.15, -187500.02, -187500.02, -187500.02, -187500.02, -187500.02, -187500.02, 0.000, 0.000, 0.000, 02:37:40.693
39, 29560.92, 8404.05, -187500.02, -187500.02, -187500.02, -187500.02, -187500.02, -187500.02, 0.000, 0.000, 0.000, 02:37:40.693
40, 29569.86, 8422.09, -187500.02, -187500.02, -187500.02, -187500.02, -187500.02, -187500.02, 0.000, 0.000, 0.000, 02:37:40.693
41, 29553.27, 8413.06, -187500.02, -187500.02, -187500.02, -187500.02, -187500.02, -187500.02, 0.000, 0.000, 0.000, 02:37:40.693
42, 29536.53, 8392.99, -187500.02, -187500.02, -187500.02, -187500.02, -187500.02, -187500.02, 0.000, 0.000, 0.000, 02:37:40.694
43, 29563.09, 8409.80, -187500.02, -187500.02, -187500.02, -187500.02, -187500.02, -187500.02, 0.000, 0.000, 0.000, 02:37:40.694
44, 29585.91, 8434.63, -187500.02, -187500.02, -187500.02, -187500.02, -187500.02, -187500.02, 0.000, 0.000, 0.000, 02:37:40.694
45, 29564.72, 8416.84, -187500.02, -187500.02, -187500.02, -187500.02, -187500.02, -187500.02, 0.000, 0.000, 0.000, 02:37:40.694
46, 29532.38, 8401.98, -187500.02, -187500.02, -187500.02, -187500.02, -187500.02, -187500.02, 0.000, 0.000, 0.000, 02:37:40.694
47, 29561.54, 8412.95, -187500.02, -187500.02, -187500.02, -187500.02, -187500.02, -187500.02, 0.210, 0.998, -0.080, 02:37:40.694
48, 29581.44, 8442.10, -187500.02, -187500.02, -187500.02, -187500.02, -187500.02, -187500.02, 0.000, 0.000, 0.000, 02:37:40.694
49, 29562.10, 8428.57, -187500.02, -187500.02, -187500.02, -187500.02, -187500.02, -187500.02, 0.000, 0.000, 0.000, 02:37:40.694
50, 29544.24, 8403.32, -187500.02, -187500.02, -187500.02, -187500.02, -187500.02, -187500.02, 0.000, 0.000, 0.000, 02:37:40.694
51, 29548.47, 8392.43, -187500.02, -187500.02, -187500.02, -187500.02, -187500.02, -187500.02, 0.000, 0.000, 0.000, 02:37:40.695
52, 29578.89, 8401.48, -187500.02, -187500.02, -187500.02, -187500.02, -187500.02, -187500.02, 0.000, 0.000, 0.000, 02:37:40.695
53, 29573.95, 8421.00, -187500.02, -187500.02, -187500.02, -187500.02, -187500.02, -187500.02, 0.000, 0.000, 0.000, 02:37:40.695
54, 29541.36, 8404.39, -187500.02, -187500.02, -187500.02, -187500.02, -187500.02, -187500.02, 0.000, 0.000, 0.000, 02:37:40.695
55, 29547.20, 8402.22, -187500.02, -187500.02, -187500.02, -187500.02, -187500.02, -187500.02, 0.000, 0.000, 0.000, 02:37:40.695
56, 29579.74, 8428.87, -187500.02, -187500.02, -187500.02, -187500.02, -187500.02, -187500.02, 0.000, 0.000, 0.000, 02:37:40.695
57, 29573.35, 8411.77, -187500.02, -187500.02, -187500.02, -187500.02, -187500.02, -187500.02, 0.202, 1.000, -0.082, 02:37:40.695
58, 29543.73, 8392.74, -187500.02, -187500.02, -187500.02, -187500.02, -187500.02, -187500.02, 0.000, 0.000, 0.000, 02:37:40.695
59, 29543.84, 8387.92, -187500.02, -187500.02, -187500.02, -187500.02, -187500.02, -187500.02, 0.000, 0.000, 0.000, 02:37:40.695
60, 29586.58, 8415.05, -187500.02, -187500.02, -187500.02, -187500.02, -187500.02, -187500.02, 0.000, 0.000, 0.000, 02:37:40.696
61, 29586.78, 8430.47, -187500.02, -187500.02, -187500.02, -187500.02, -187500.02, -187500.02, 0.000, 0.000, 0.000, 02:37:40.696
62, 29565.37, 8408.28, -187500.02, -187500.02, -187500.02, -187500.02, -187500.02, -187500.02, 0.000, 0.000, 0.000, 02:37:40.696
63, 29541.27, 8381.75, -187500.02, -187500.02, -187500.02, -187500.02, -187500.02, -187500.02, 0.000, 0.000, 0.000, 02:37:40.696
64, 29572.14, 8419.14, -187500.02, -187500.02, -187500.02, -187500.02, -187500.02, -187500.02, 0.000, 0.000, 0.000, 02:37:40.696
65, 29583.58, 8425.22, -187500.02, -187500.02, -187500.02, -187500.02, -187500.02, -187500.02, 0.000, 0.000, 0.000, 02:37:40.696
66, 29571.78, 8396.16, -187500.02, -187500.02, -187500.02, -187500.02, -187500.02, -187500.02, 0.210, 0.996, -0.080, 02:37:40.696
67, 29553.56, 8374.33, -187500.02, -187500.02, -187500.02, -187500.02, -187500.02, -187500.02, 0.000, 0.000, 0.000, 02:37:40.696
68, 29579.25, 8418.14, -187500.02, -187500.02, -187500.02, -187500.02, -187500.02, -187500.02, 0.000, 0.000, 0.000, 02:37:40.696
69, 29591.59, 8442.97, -187500.02, -187500.02, -187500.02, -187500.02, -187500.02, -187500.02, 0.000, 0.000, 0.000, 02:37:40.697
70, 29573.93, 8416.68, -187500.02, -187500.02, -187500.02, -187500.02, -187500.02, -187500.02, 0.000, 0.000, 0.000, 02:37:40.697
71, 29547.93, 8377.57, -187500.02, -187500.02, -187500.02, -187500.02, -187500.02, -187500.02, 0.000, 0.000, 0.000, 02:37:40.697
72, 29561.14, 8388.21, -187500.02, -187500.02, -187500.02, -187500.02, -187500.02, -187500.02, 0.000, 0.000, 0.000, 02:37:40.697
73, 29579.45, 8418.47, -187500.02, -187500.02, -187500.02, -187500.02, -187500.02, -187500.02, 0.000, 0.000, 0.000, 02:37:40.697
74, 29577.91, 8405.75, -187500.02, -187500.02, -187500.02, -187500.02, -187500.02, -187500.02, 0.000, 0.000, 0.000, 02:37:40.697
75, 29549.03, 8385.08, -187500.02, -187500.02, -187500.02, -187500.02, -187500.02, -187500.02, 0.000, 0.000, 0.000, 02:37:40.697
76, 29556.76, 8388.41, -187500.02, -187500.02, -187500.02, -187500.02, -187500.02, -187500.02, 0.214, 0.996, -0.084, 02:37:40.698
77, 29584.61, 8413.49, -187500.02, -187500.02, -187500.02, -187500.02, -187500.02, -187500.02, 0.000, 0.000, 0.000, 02:37:40.698
78, 29571.13, 8418.16, -187500.02, -187500.02, -187500.02, -187500.02, -187500.02, -187500.02, 0.000, 0.000, 0.000, 02:37:40.698
79, 29563.87, 8392.03, -187500.02, -187500.02, -187500.02, -187500.02, -187500.02, -187500.02, 0.000, 0.000, 0.000, 02:37:40.698
80, 29579.74, 8413.71, -187500.02, -187500.02, -187500.02, -187500.02, -187500.02, -187500.02, 0.000, 0.000, 0.000, 02:37:40.698
81, 29621.56, 8448.80, -187500.02, -187500.02, -187500.02, -187500.02, -187500.02, -187500.02, 0.000, 0.000, 0.000, 02:37:40.698
82, 29606.94, 8433.31, -187500.02, -187500.02, -187500.02, -187500.02, -187500.02, -187500.02, 0.000, 0.000, 0.000, 02:37:40.698
83, 29563.51, 8404.55, -187500.02, -187500.02, -187500.02, -187500.02, -187500.02, -187500.02, 0.000, 0.000, 0.000, 02:37:40.698
84, 29548.07, 8384.92, -187500.02, -187500.02, -187500.02, -187500.02, -187500.02, -187500.02, 0.000, 0.000, 0.000, 02:37:40.698
85, 29592.88, 8406.49, -187500.02, -187500.02, -187500.02, -187500.02, -187500.02, -187500.02, 0.000, 0.000, 0.000, 02:37:40.698
86, 29601.80, 8413.67, -187500.02, -187500.02, -187500.02, -187500.02, -187500.02, -187500.02, 0.210, 0.994, -0.082, 02:37:40.699
87, 29568.94, 8385.97, -187500.02, -187500.02, -187500.02, -187500.02, -187500.02, -187500.02, 0.000, 0.000, 0.000, 02:37:40.699
88, 29547.55, 8381.30, -187500.02, -187500.02, -187500.02, -187500.02, -187500.02, -187500.02, 0.000, 0.000, 0.000, 02:37:40.699
89, 29593.22, 8418.87, -187500.02, -187500.02, -187500.02, -187500.02, -187500.02, -187500.02, 0.000, 0.000, 0.000, 02:37:40.699
90, 29594.20, 8410.13, -187500.02, -187500.02, -187500.02, -187500.02, -187500.02, -187500.02, 0.000, 0.000, 0.000, 02:37:40.699
91, 29571.78, 8388.25, -187500.02, -187500.02, -187500.02, -187500.02, -187500.02, -187500.02, 0.000, 0.000, 0.000, 02:37:40.699
92, 29550.32, 8403.34, -187500.02, -187500.02, -187500.02, -187500.02, -187500.02, -187500.02, 0.000, 0.000, 0.000, 02:37:40.699
93, 29576.79, 8409.02, -187500.02, -187500.02, -187500.02, -187500.02, -187500.02, -187500.02, 0.000, 0.000, 0.000, 02:37:40.699
94, 29585.17, 8400.17, -187500.02, -187500.02, -187500.02, -187500.02, -187500.02, -187500.02, 0.000, 0.000, 0.000, 02:37:40.699
95, 29566.17, 8391.31, -187500.02, -187500.02, -187500.02, -187500.02, -187500.02, -187500.02, 0.000, 0.000, 0.000, 02:37:40.699
96, 29543.44, 8373.61, -187500.02, -187500.02, -187500.02, -187500.02, -187500.02, -187500.02, 0.216, 0.988, -0.086, 02:37:40.700
97, 29576.45, 8386.89, -187500.02, -187500.02, -187500.02, -187500.02, -187500.02, -187500.02, 0.000, 0.000, 0.000, 02:37:40.700
98, 29595.63, 8399.96, -187500.02, -187500.02, -187500.02, -187500.02, -187500.02, -187500.02, 0.000, 0.000, 0.000, 02:37:40.700
99, 29583.67, 8400.70, -187500.02, -187500.02, -187500.02, -187500.02, -187500.02, -187500.02, 0.000, 0.000, 0.000, 02:37:40.700
100, 29564.43, 8387.18, -187500.02, -187500.02, -187500.02, -187500.02, -187500.02, -187500.02, 0.000, 0.000, 0.000, 02:37:40.700
101, 29565.14, 8384.23, -187500.02, -187500.02, -187500.02, -187500.02, -187500.02, -187500.02, 0.000, 0.000, 0.000, 02:37:40.700
102, 29585.13, 8402.27, -187500.02, -187500.02, -187500.02, -187500.02, -187500.02, -187500.02, 0.000, 0.000, 0.000, 02:37:40.701
103, 29593.78, 8397.84, -187500.02, -187500.02, -187500.02, -187500.02, -187500.02, -187500.02, 0.000, 0.000, 0.000, 02:37:40.701
104, 29564.63, 8370.21, -187500.02, -187500.02, -187500.02, -187500.02, -187500.02, -187500.02, 0.000, 0.000, 0.000, 02:37:40.701
105, 29561.61, 8364.92, -187500.02, -187500.02, -187500.02, -187500.02, -187500.02, -187500.02, 0.000, 0.000, 0.000, 02:37:40.701
106, 29599.25, 8397.04, -187500.02, -187500.02, -187500.02, -187500.02, -187500.02, -187500.02, 0.218, 0.994, -0.084, 02:37:41.167
107, 29593.20, 8385.23, -187500.02, -187500.02, -187500.02, -187500.02, -187500.02, -187500.02, 0.000, 0.000, 0.000, 02:37:41.167
108, 29562.39, 8391.09, -187500.02, -187500.02, -187500.02, -187500.02, -187500.02, -187500.02, 0.000, 0.000, 0.000, 02:37:41.168
109, 29554.04, 8365.61, -187500.02, -187500.02, -187500.02, -187500.02, -187500.02, -187500.02, 0.000, 0.000, 0.000, 02:37:41.168
110, 29587.03, 8383.02, -187500.02, -187500.02, -187500.02, -187500.02, -187500.02, -187500.02, 0.000, 0.000, 0.000, 02:37:41.168
111, 29587.49, 8397.97, -187500.02, -187500.02, -187500.02, -187500.02, -187500.02, -187500.02, 0.000, 0.000, 0.000, 02:37:41.168
112, 29573.01, 8394.15, -187500.02, -187500.02, -187500.02, -187500.02, -187500.02, -187500.02, 0.000, 0.000, 0.000, 02:37:41.168
113, 29557.23, 8382.19, -187500.02, -187500.02, -187500.02, -187500.02, -187500.02, -187500.02, 0.000, 0.000, 0.000, 02:37:41.168
114, 29584.54, 8404.88, -187500.02, -187500.02, -187500.02, -187500.02, -187500.02, -187500.02, 0.000, 0.000, 0.000, 02:37:41.169
115, 29602.67, 8411.65, -187500.02, -187500.02, -187500.02, -187500.02, -187500.02, -187500.02, 0.000, 0.000, 0.000, 02:37:41.169
116, 29571.54, 8404.23, -187500.02, -187500.02, -187500.02, -187500.02, -187500.02, -187500.02, 0.220, 0.992, -0.082, 02:37:41.169
117, 29548.98, 8392.23, -187500.02, -187500.02, -187500.02, -187500.02, -187500.02, -187500.02, 0.000, 0.000, 0.000, 02:37:41.169
118, 29587.67, 8414.18, -187500.02, -187500.02, -187500.02, -187500.02, -187500.02, -187500.02, 0.000, 0.000, 0.000, 02:37:41.169
119, 29611.77, 8444.24, -187500.02, -187500.02, -187500.02, -187500.02, -187500.02, -187500.02, 0.000, 0.000, 0.000, 02:37:41.169
120, 29595.99, 8438.28, -187500.02, -187500.02, -187500.02, -187500.02, -187500.02, -187500.02, 0.000, 0.000, 0.000, 02:37:41.169
121, 29577.93, 8401.04, -187500.02, -187500.02, -187500.02, -187500.02, -187500.02, -187500.02, 0.000, 0.000, 0.000, 02:37:41.170
122, 29578.46, 8412.01, -187500.02, -187500.02, -187500.02, -187500.02, -187500.02, -187500.02, 0.000, 0.000, 0.000, 02:37:41.170
123, 29607.41, 8448.31, -187500.02, -187500.02, -187500.02, -187500.02, -187500.02, -187500.02, 0.000, 0.000, 0.000, 02:37:41.170
124, 29619.26, 8447.71, -187500.02, -187500.02, -187500.02, -187500.02, -187500.02, -187500.02, 0.000, 0.000, 0.000, 02:37:41.170
125, 29574.33, 8436.40, -187500.02, -187500.02, -187500.02, -187500.02, -187500.02, -187500.02, 0.216, 0.992, -0.082, 02:37:41.170
126, 29583.05, 8425.49, -187500.02, -187500.02, -187500.02, -187500.02, -187500.02, -187500.02, 0.000, 0.000, 0.000, 02:37:41.170
127, 29613.94, 8471.62, -187500.02, -187500.02, -187500.02, -187500.02, -187500.02, -187500.02, 0.000, 0.000, 0.000, 02:37:41.171
128, 29606.56, 8487.25, -187500.02, -187500.02, -187500.02, -187500.02, -187500.02, -187500.02, 0.000, 0.000, 0.000, 02:37:41.171
129, 29583.31, 8456.00, -187500.02, -187500.02, -187500.02, -187500.02, -187500.02, -187500.02, 0.000, 0.000, 0.000, 02:37:41.171
130, 29577.26, 8429.00, -187500.02, -187500.02, -187500.02, -187500.02, -187500.02, -187500.02, 0.000, 0.000, 0.000, 02:37:41.171
131, 29603.74, 8447.46, -187500.02, -187500.02, -187500.02, -187500.02, -187500.02, -187500.02, 0.000, 0.000, 0.000, 02:37:41.171
132, 29613.04, 8462.30, -187500.02, -187500.02, -187500.02, -187500.02, -187500.02, -187500.02, 0.000, 0.000, 0.000, 02:37:41.171
133, 29579.94, 8448.09, -187500.02, -187500.02, -187500.02, -187500.02, -187500.02, -187500.02, 0.000, 0.000, 0.000, 02:37:41.171
134, 29576.65, 8434.27, -187500.02, -187500.02, -187500.02, -187500.02, -187500.02, -187500.02, 0.000, 0.000, 0.000, 02:37:41.171
135, 29602.04, 8452.00, -187500.02, -187500.02, -187500.02, -187500.02, -187500.02, -187500.02, 0.216, 0.990, -0.082, 02:37:41.171
136, 29604.53, 8456.42, -187500.02, -187500.02, -187500.02, -187500.02, -187500.02, -187500.02, 0.000, 0.000, 0.000, 02:37:41.172
137, 29600.23, 8448.11, -187500.02, -187500.02, -187500.02, -187500.02, -187500.02, -187500.02, 0.000, 0.000, 0.000, 02:37:41.172
138, 29576.45, 8432.42, -187500.02, -187500.02, -187500.02, -187500.02, -187500.02, -187500.02, 0.000, 0.000, 0.000, 02:37:41.172
139, 29591.14, 8469.25, -187500.02, -187500.02, -187500.02, -187500.02, -187500.02, -187500.02, 0.000, 0.000, 0.000, 02:37:41.172
140, 29595.38, 8480.83, -187500.02, -187500.02, -187500.02, -187500.02, -187500.02, -187500.02, 0.000, 0.000, 0.000, 02:37:41.172
141, 29586.73, 8474.26, -187500.02, -187500.02, -187500.02, -187500.02, -187500.02, -187500.02, 0.000, 0.000, 0.000, 02:37:41.172
142, 29557.81, 8428.49, -187500.02, -187500.02, -187500.02, -187500.02, -187500.02, -187500.02, 0.000, 0.000, 0.000, 02:37:41.173
143, 29583.56, 8444.67, -187500.02, -187500.02, -187500.02, -187500.02, -187500.02, -187500.02, 0.000, 0.000, 0.000, 02:37:41.173
144, 29597.22, 8479.92, -187500.02, -187500.02, -187500.02, -187500.02, -187500.02, -187500.02, 0.000, 0.000, 0.000, 02:37:41.173
145, 29593.04, 8474.46, -187500.02, -187500.02, -187500.02, -187500.02, -187500.02, -187500.02, 0.214, 0.992, -0.084, 02:37:41.173
146, 29579.65, 8449.63, -187500.02, -187500.02, -187500.02, -187500.02, -187500.02, -187500.02, 0.000, 0.000, 0.000, 02:37:41.173
147, 29575.92, 8440.20, -187500.02, -187500.02, -187500.02, -187500.02, -187500.02, -187500.02, 0.000, 0.000, 0.000, 02:37:41.173
148, 29591.56, 8459.93, -187500.02, -187500.02, -187500.02, -187500.02, -187500.02, -187500.02, 0.000, 0.000, 0.000, 02:37:41.174
149, 29591.09, 8461.10, -187500.02, -187500.02, -187500.02, -187500.02, -187500.02, -187500.02, 0.000, 0.000, 0.000, 02:37:41.174
150, 29584.46, 8449.07, -187500.02, -187500.02, -187500.02, -187500.02, -187500.02, -187500.02, 0.000, 0.000, 0.000, 02:37:41.174
151, 29589.10, 8460.65, -187500.02, -187500.02, -187500.02, -187500.02, -187500.02, -187500.02, 0.000, 0.000, 0.000, 02:37:41.174
152, 29603.45, 8487.92, -187500.02, -187500.02, -187500.02, -187500.02, -187500.02, -187500.02, 0.000, 0.000, 0.000, 02:37:41.174
153, 29592.57, 8475.69, -187500.02, -187500.02, -187500.02, -187500.02, -187500.02, -187500.02, 0.000, 0.000, 0.000, 02:37:41.174
154, 29567.60, 8448.94, -187500.02, -187500.02, -187500.02, -187500.02, -187500.02, -187500.02, 0.000, 0.000, 0.000, 02:37:41.174
155, 29564.27, 8455.71, -187500.02, -187500.02, -187500.02, -187500.02, -187500.02, -187500.02, 0.216, 0.996, -0.082, 02:37:41.174
156, 29605.20, 8478.96, -187500.02, -187500.02, -187500.02, -187500.02, -187500.02, -187500.02, 0.000, 0.000, 0.000, 02:37:41.174
157, 29609.11, 8473.46, -187500.02, -187500.02, -187500.02, -187500.02, -187500.02, -187500.02, 0.000, 0.000, 0.000, 02:37:41.175
158, 29570.20, 8454.93, -187500.02, -187500.02, -187500.02, -187500.02, -187500.02, -187500.02, 0.000, 0.000, 0.000, 02:37:41.175
159, 29559.13, 8447.82, -187500.02, -187500.02, -187500.02, -187500.02, -187500.02, -187500.02, 0.000, 0.000, 0.000, 02:37:41.175
160, 29583.05, 8467.47, -187500.02, -187500.02, -187500.02, -187500.02, -187500.02, -187500.02, 0.000, 0.000, 0.000, 02:37:41.175
161, 29590.67, 8493.28, -187500.02, -187500.02, -187500.02, -187500.02, -187500.02, -187500.02, 0.000, 0.000, 0.000, 02:37:41.175
162, 29575.92, 8475.69, -187500.02, -187500.02, -187500.02, -187500.02, -187500.02, -187500.02, 0.000, 0.000, 0.000, 02:37:41.175
163, 29560.45, 8455.13, -187500.02, -187500.02, -187500.02, -187500.02, -187500.02, -187500.02, 0.000, 0.000, 0.000, 02:37:41.175
164, 29575.00, 8450.59, -187500.02, -187500.02, -187500.02, -187500.02, -187500.02, -187500.02, 0.000, 0.000, 0.000, 02:37:41.175
165, 29589.55, 8473.57, -187500.02, -187500.02, -187500.02, -187500.02, -187500.02, -187500.02, 0.214, 0.990, -0.082, 02:37:41.176
166, 29575.63, 8469.79, -187500.02, -187500.02, -187500.02, -187500.02, -187500.02, -187500.02, 0.000, 0.000, 0.000, 02:37:41.176
167, 29555.76, 8430.07, -187500.02, -187500.02, -187500.02, -187500.02, -187500.02, -187500.02, 0.000, 0.000, 0.000, 02:37:41.176
168, 29572.68, 8432.13, -187500.02, -187500.02, -187500.02, -187500.02, -187500.02, -187500.02, 0.000, 0.000, 0.000, 02:37:41.176
169, 29594.60, 8467.62, -187500.02, -187500.02, -187500.02, -187500.02, -187500.02, -187500.02, 0.000, 0.000, 0.000, 02:37:41.176
170, 29599.30, 8504.19, -187500.02, -187500.02, -187500.02, -187500.02, -187500.02, -187500.02, 0.000, 0.000, 0.000, 02:37:41.176
171, 29557.39, 8462.15, -187500.02, -187500.02, -187500.02, -187500.02, -187500.02, -187500.02, 0.000, 0.000, 0.000, 02:37:41.176
172, 29563.69, 8456.02, -187500.02, -187500.02, -187500.02, -187500.02, -187500.02, -187500.02, 0.000, 0.000, 0.000, 02:37:41.176
173, 29601.33, 8482.40, -187500.02, -187500.02, -187500.02, -187500.02, -187500.02, -187500.02, 0.000, 0.000, 0.000, 02:37:41.177
174, 29604.68, 8474.84, -187500.02, -187500.02, -187500.02, -187500.02, -187500.02, -187500.02, 0.000, 0.000, 0.000, 02:37:41.177
175, 29582.67, 8462.24, -187500.02, -187500.02, -187500.02, -187500.02, -187500.02, -187500.02, 0.220, 0.990, -0.078, 02:37:41.177
176, 29568.27, 8445.11, -187500.02, -187500.02, -187500.02, -187500.02, -187500.02, -187500.02, 0.000, 0.000, 0.000, 02:37:41.177
177, 29598.80, 8474.84, -187500.02, -187500.02, -187500.02, -187500.02, -187500.02, -187500.02, 0.000, 0.000, 0.000, 02:37:41.177
178, 29596.41, 8476.03, -187500.02, -187500.02, -187500.02, -187500.02, -187500.02, -187500.02, 0.000, 0.000, 0.000, 02:37:41.177
179, 29574.29, 8444.87, -187500.02, -187500.02, -187500.02, -187500.02, -187500.02, -187500.02, 0.000, 0.000, 0.000, 02:37:41.177
180, 29560.23, 8448.13, -187500.02, -187500.02, -187500.02, -187500.02, -187500.02, -187500.02, 0.000, 0.000, 0.000, 02:37:41.177
181, 29587.32, 8476.90, -187500.02, -187500.02, -187500.02, -187500.02, -187500.02, -187500.02, 0.000, 0.000, 0.000, 02:37:41.178
182, 29596.12, 8477.23, -187500.02, -187500.02, -187500.02, -187500.02, -187500.02, -187500.02, 0.000, 0.000, 0.000, 02:37:41.178
183, 29568.63, 8452.67, -187500.02, -187500.02, -187500.02, -187500.02, -187500.02, -187500.02, 0.000, 0.000, 0.000, 02:37:41.178
184, 29557.25, 8420.73, -187500.02, -187500.02, -187500.02, -187500.02, -187500.02, -187500.02, 0.216, 0.996, -0.080, 02:37:41.178
185, 29585.21, 8443.44, -187500.02, -187500.02, -187500.02, -187500.02, -187500.02, -187500.02, 0.000, 0.000, 0.000, 02:37:41.178
186, 29609.18, 8467.94, -187500.02, -187500.02, -187500.02, -187500.02, -187500.02, -187500.02, 0.000, 0.000, 0.000, 02:37:41.178
187, 29576.41, 8462.57, -187500.02, -187500.02, -187500.02, -187500.02, -187500.02, -187500.02, 0.000, 0.000, 0.000, 02:37:41.178
188, 29555.38, 8442.48, -187500.02, -187500.02, -187500.02, -187500.02, -187500.02, -187500.02, 0.000, 0.000, 0.000, 02:37:41.178
189, 29576.97, 8460.43, -187500.02, -187500.02, -187500.02, -187500.02, -187500.02, -187500.02, 0.000, 0.000, 0.000, 02:37:41.179
190, 29597.69, 8465.03, -187500.02, -187500.02, -187500.02, -187500.02, -187500.02, -187500.02, 0.000, 0.000, 0.000, 02:37:41.179
191, 29582.78, 8470.22, -187500.02, -187500.02, -187500.02, -187500.02, -187500.02, -187500.02, 0.000, 0.000, 0.000, 02:37:41.179
192, 29563.00, 8454.79, -187500.02, -187500.02, -187500.02, -187500.02, -187500.02, -187500.02, 0.000, 0.000, 0.000, 02:37:41.179
193, 29576.01, 8452.47, -187500.02, -187500.02, -187500.02, -187500.02, -187500.02, -187500.02, 0.000, 0.000, 0.000, 02:37:41.179
194, 29595.63, 8469.99, -187500.02, -187500.02, -187500.02, -187500.02, -187500.02, -187500.02, 0.216, 0.984, -0.084, 02:37:41.179
195, 29589.10, 8462.01, -187500.02, -187500.02, -187500.02, -187500.02, -187500.02, -187500.02, 0.000, 0.000, 0.000, 02:37:41.179
196, 29571.65, 8453.38, -187500.02, -187500.02, -187500.02, -187500.02, -187500.02, -187500.02, 0.000, 0.000, 0.000, 02:37:41.179
197, 29579.78, 8448.13, -187500.02, -187500.02, -187500.02, -187500.02, -187500.02, -187500.02, 0.000, 0.000, 0.000, 02:37:41.179
198, 29602.78, 8462.88, -187500.02, -187500.02, -187500.02, -187500.02, -187500.02, -187500.02, 0.000, 0.000, 0.000, 02:37:41.179
199, 29594.45, 8445.58, -187500.02, -187500.02, -187500.02, -187500.02, -187500.02, -187500.02, 0.000, 0.000, 0.000, 02:37:41.180
200, 29568.25, 8424.73, -187500.02, -187500.02, -187500.02, -187500.02, -187500.02, -187500.02, 0.000, 0.000, 0.000, 02:37:41.180
201, 29568.76, 8450.77, -187500.02, -187500.02, -187500.02, -187500.02, -187500.02, -187500.02, 0.000, 0.000, 0.000, 02:37:41.180
202, 29581.01, 8448.76, -187500.02, -187500.02, -187500.02, -187500.02, -187500.02, -187500.02, 0.000, 0.000, 0.000, 02:37:41.180
203, 29583.18, 8463.02, -187500.02, -187500.02, -187500.02, -187500.02, -187500.02, -187500.02, 0.000, 0.000, 0.000, 02:37:41.180
204, 29564.83, 8461.34, -187500.02, -187500.02, -187500.02, -187500.02, -187500.02, -187500.02, 0.216, 0.986, -0.084, 02:37:41.180
205, 29573.01, 8432.75, -187500.02, -187500.02, -187500.02, -187500.02, -187500.02, -187500.02, 0.000, 0.000, 0.000, 02:37:41.180
206, 29602.22, 8462.73, -187500.02, -187500.02, -187500.02, -187500.02, -187500.02, -187500.02, 0.000, 0.000, 0.000, 02:37:41.180
207, 29601.44, 8477.75, -187500.02, -187500.02, -187500.02, -187500.02, -187500.02, -187500.02, 0.000, 0.000, 0.000, 02:37:41.180
208, 29582.18, 8458.75, -187500.02, -187500.02, -187500.02, -187500.02, -187500.02, -187500.02, 0.000, 0.000, 0.000, 02:37:41.180
209, 29565.97, 8428.95, -187500.02, -187500.02, -187500.02, -187500.02, -187500.02, -187500.02, 0.000, 0.000, 0.000, 02:37:41.181
210, 29586.20, 8436.64, -187500.02, -187500.02, -187500.02, -187500.02, -187500.02, -187500.02, 0.000, 0.000, 0.000, 02:37:41.181
211, 29595.92, 8462.91, -187500.02, -187500.02, -187500.02, -187500.02, -187500.02, -187500.02, 0.000, 0.000, 0.000, 02:37:41.181
212, 29578.58, 8447.51, -187500.02, -187500.02, -187500.02, -187500.02, -187500.02, -187500.02, 0.000, 0.000, 0.000, 02:37:41.181
213, 29551.55, 8427.84, -187500.02, -187500.02, -187500.02, -187500.02, -187500.02, -187500.02, 0.000, 0.000, 0.000, 02:37:41.181
214, 29588.48, 8455.08, -187500.02, -187500.02, -187500.02, -187500.02, -187500.02, -187500.02, 0.216, 0.990, -0.082, 02:37:41.181
215, 29593.62, 8450.99, -187500.02, -187500.02, -187500.02, -187500.02, -187500.02, -187500.02, 0.000, 0.000, 0.000, 02:37:41.181
216, 29577.35, 8456.04, -187500.02, -187500.02, -187500.02, -187500.02, -187500.02, -187500.02, 0.000, 0.000, 0.000, 02:37:41.181
217, 29541.29, 8425.45, -187500.02, -187500.02, -187500.02, -187500.02, -187500.02, -187500.02, 0.000, 0.000, 0.000, 02:37:41.181
218, 29555.85, 8436.08, -187500.02, -187500.02, -187500.02, -187500.02, -187500.02, -187500.02, 0.000, 0.000, 0.000, 02:37:41.181
219, 29587.74, 8462.77, -187500.02, -187500.02, -187500.02, -187500.02, -187500.02, -187500.02, 0.000, 0.000, 0.000, 02:37:41.182
220, 29578.04, 8460.07, -187500.02, -187500.02, -187500.02, -187500.02, -187500.02, -187500.02, 0.000, 0.000, 0.000, 02:37:41.182
221, 29548.47, 8437.89, -187500.02, -187500.02, -187500.02, -187500.02, -187500.02, -187500.02, 0.000, 0.000, 0.000, 02:37:41.182
222, 29561.32, 8428.78, -187500.02, -187500.02, -187500.02, -187500.02, -187500.02, -187500.02, 0.000, 0.000, 0.000, 02:37:41.182
223, 29589.73, 8461.61, -187500.02, -187500.02, -187500.02, -187500.02, -187500.02, -187500.02, 0.000, 0.000, 0.000, 02:37:41.182
224, 29582.73, 8453.90, -187500.02, -187500.02, -187500.02, -187500.02, -187500.02, -187500.02, 0.214, 0.992, -0.082, 02:37:41.182
225, 29558.97, 8431.79, -187500.02, -187500.02, -187500.02, -187500.02, -187500.02, -187500.02, 0.000, 0.000, 0.000, 02:37:41.182
226, 29553.77, 8421.60, -187500.02, -187500.02, -187500.02, -187500.02, -187500.02, -187500.02, 0.000, 0.000, 0.000, 02:37:41.649
227, 29582.71, 8439.64, -187500.02, -187500.02, -187500.02, -187500.02, -187500.02, -187500.02, 0.000, 0.000, 0.000, 02:37:41.649
228, 29576.54, 8446.48, -187500.02, -187500.02, -187500.02, -187500.02, -187500.02, -187500.02, 0.000, 0.000, 0.000, 02:37:41.649
229, 29549.14, 8425.31, -187500.02, -187500.02, -187500.02, -187500.02, -187500.02, -187500.02, 0.000, 0.000, 0.000, 02:37:41.649
230, 29536.40, 8399.16, -187500.02, -187500.02, -187500.02, -187500.02, -187500.02, -187500.02, 0.000, 0.000, 0.000, 02:37:41.649
231, 29569.39, 8446.79, -187500.02, -187500.02, -187500.02, -187500.02, -187500.02, -187500.02, 0.000, 0.000, 0.000, 02:37:41.649
232, 29575.78, 8462.12, -187500.02, -187500.02, -187500.02, -187500.02, -187500.02, -187500.02, 0.000, 0.000, 0.000, 02:37:41.649
233, 29565.95, 8437.74, -187500.02, -187500.02, -187500.02, -187500.02, -187500.02, -187500.02, 0.000, 0.000, 0.000, 02:37:41.650
234, 29541.70, 8408.55, -187500.02, -187500.02, -187500.02, -187500.02, -187500.02, -187500.02, 0.214, 0.992, -0.082, 02:37:41.650
235, 29564.38, 8451.31, -187500.02, -187500.02, -187500.02, -187500.02, -187500.02, -187500.02, 0.000, 0.000, 0.000, 02:37:41.650
236, 29577.71, 8449.09, -187500.02, -187500.02, -187500.02, -187500.02, -187500.02, -187500.02, 0.000, 0.000, 0.000, 02:37:41.650
237, 29559.46, 8423.52, -187500.02, -187500.02, -187500.02, -187500.02, -187500.02, -187500.02, 0.000, 0.000, 0.000, 02:37:41.650
238, 29531.97, 8406.63, -187500.02, -187500.02, -187500.02, -187500.02, -187500.02, -187500.02, 0.000, 0.000, 0.000, 02:37:41.650
239, 29564.12, 8437.65, -187500.02, -187500.02, -187500.02, -187500.02, -187500.02, -187500.02, 0.000, 0.000, 0.000, 02:37:41.650
240, 29580.90, 8457.74, -187500.02, -187500.02, -187500.02, -187500.02, -187500.02, -187500.02, 0.000, 0.000, 0.000, 02:37:41.650
241, 29564.54, 8442.03, -187500.02, -187500.02, -187500.02, -187500.02, -187500.02, -187500.02, 0.000, 0.000, 0.000, 02:37:41.650
242, 29537.67, 8411.74, -187500.02, -187500.02, -187500.02, -187500.02, -187500.02, -187500.02, 0.000, 0.000, 0.000, 02:37:41.650
243, 29547.31, 8408.39, -187500.02, -187500.02, -187500.02, -187500.02, -187500.02, -187500.02, 0.000, 0.000, 0.000, 02:37:41.651
244, 29584.14, 8441.83, -187500.02, -187500.02, -187500.02, -187500.02, -187500.02, -187500.02, 0.208, 0.990, -0.082, 02:37:41.651
245, 29569.52, 8419.63, -187500.02, -187500.02, -187500.02, -187500.02, -187500.02, -187500.02, 0.000, 0.000, 0.000, 02:37:41.651
246, 29540.98, 8413.71, -187500.02, -187500.02, -187500.02, -187500.02, -187500.02, -187500.02, 0.000, 0.000, 0.000, 02:37:41.651
247, 29559.02, 8420.15, -187500.02, -187500.02, -187500.02, -187500.02, -187500.02, -187500.02, 0.000, 0.000, 0.000, 02:37:41.651
248, 29588.12, 8445.81, -187500.02, -187500.02, -187500.02, -187500.02, -187500.02, -187500.02, 0.000, 0.000, 0.000, 02:37:41.651
249, 29580.03, 8454.84, -187500.02, -187500.02, -187500.02, -187500.02, -187500.02, -187500.02, 0.000, 0.000, 0.000, 02:37:41.651
250, 29550.48, 8431.50, -187500.02, -187500.02, -187500.02, -187500.02, -187500.02, -187500.02, 0.000, 0.000, 0.000, 02:37:41.651
251, 29551.87, 8437.47, -187500.02, -187500.02, -187500.02, -187500.02, -187500.02, -187500.02, 0.000, 0.000, 0.000, 02:37:41.651
252, 29580.88, 8441.02, -187500.02, -187500.02, -187500.02, -187500.02, -187500.02, -187500.02, 0.000, 0.000, 0.000, 02:37:41.652
253, 29582.49, 8425.98, -187500.02, -187500.02, -187500.02, -187500.02, -187500.02, -187500.02, 0.218, 0.994, -0.084, 02:37:41.652
254, 29548.04, 8427.46, -187500.02, -187500.02, -187500.02, -187500.02, -187500.02, -187500.02, 0.000, 0.000, 0.000, 02:37:41.652
255, 29531.68, 8415.34, -187500.02, -187500.02, -187500.02, -187500.02, -187500.02, -187500.02, 0.000, 0.000, 0.000, 02:37:41.652
0, 29571.38, 8438.45, -187500.02, -187500.02, -187500.02, -187500.02, -187500.02, -187500.02, 0.000, 0.000, 0.000, 02:37:41.652
1, 29585.57, 8441.47, -187500.02, -187500.02, -187500.02, -187500.02, -187500.02, -187500.02, 0.000, 0.000, 0.000, 02:37:41.652
2, 29572.45, 8441.09, -187500.02, -187500.02, -187500.02, -187500.02, -187500.02, -187500.02, 0.000, 0.000, 0.000, 02:37:41.652
3, 29543.26, 8421.35, -187500.02, -187500.02, -187500.02, -187500.02, -187500.02, -187500.02, 0.000, 0.000, 0.000, 02:37:41.652
4, 29570.11, 8418.94, -187500.02, -187500.02, -187500.02, -187500.02, -187500.02, -187500.02, 0.000, 0.000, 0.000, 02:37:41.652
5, 29578.60, 8434.27, -187500.02, -187500.02, -187500.02, -187500.02, -187500.02, -187500.02, 0.000, 0.000, 0.000, 02:37:41.653
6, 29568.00, 8434.41, -187500.02, -187500.02, -187500.02, -187500.02, -187500.02, -187500.02, 0.000, 0.000, 0.000, 02:37:41.653
7, 29544.36, 8400.19, -187500.02, -187500.02, -187500.02, -187500.02, -187500.02, -187500.02, 0.218, 0.986, -0.088, 02:37:41.653
8, 29569.12, 8414.34, -187500.02, -187500.02, -187500.02, -187500.02, -187500.02, -187500.02, 0.000, 0.000, 0.000, 02:37:41.653
9, 29589.04, 8431.12, -187500.02, -187500.02, -187500.02, -187500.02, -187500.02, -187500.02, 0.000, 0.000, 0.000, 02:37:41.653
10, 29583.14, 8448.31, -187500.02, -187500.02, -187500.02, -187500.02, -187500.02, -187500.02, 0.000, 0.000, 0.000, 02:37:41.653
11, 29552.29, 8424.89, -187500.02, -187500.02, -187500.02, -187500.02, -187500.02, -187500.02, 0.000, 0.000, 0.000, 02:37:41.653
12, 29562.33, 8421.27, -187500.02, -187500.02, -187500.02, -187500.02, -187500.02, -187500.02, 0.000, 0.000, 0.000, 02:37:41.653
13, 29587.07, 8437.72, -187500.02, -187500.02, -187500.02, -187500.02, -187500.02, -187500.02, 0.000, 0.000, 0.000, 02:37:41.653
14, 29590.76, 8428.69, -187500.02, -187500.02, -187500.02, -187500.02, -187500.02, -187500.02, 0.000, 0.000, 0.000, 02:37:41.654
15, 29566.53, 8421.91, -187500.02, -187500.02, -187500.02, -187500.02, -187500.02, -187500.02, 0.000, 0.000, 0.000, 02:37:41.654
16, 29553.23, 8411.10, -187500.02, -187500.02, -187500.02, -187500.02, -187500.02, -187500.02, 0.000, 0.000, 0.000, 02:37:41.654
17, 29593.06, 8446.54, -187500.02, -187500.02, -187500.02, -187500.02, -187500.02, -187500.02, 0.218, 0.990, -0.090, 02:37:41.654
18, 29602.07, 8469.21, -187500.02, -187500.02, -187500.02, -187500.02, -187500.02, -187500.02, 0.000, 0.000, 0.000, 02:37:41.654
19, 29582.51, 8440.42, -187500.02, -187500.02, -187500.02, -187500.02, -187500.02, -187500.02, 0.000, 0.000, 0.000, 02:37:41.654
20, 29565.68, 8413.06, -187500.02, -187500.02, -187500.02, -187500.02, -187500.02, -187500.02, 0.000, 0.000, 0.000, 02:37:41.654
21, 29593.02, 8427.30, -187500.02, -187500.02, -187500.02, -187500.02, -187500.02, -187500.02, 0.000, 0.000, 0.000, 02:37:41.654
22, 29579.20, 8437.13, -187500.02, -187500.02, -187500.02, -187500.02, -187500.02, -187500.02, 0.000, 0.000, 0.000, 02:37:41.654
23, 29559.94, 8430.09, -187500.02, -187500.02, -187500.02, -187500.02, -187500.02, -187500.02, 0.000, 0.000, 0.000, 02:37:41.655
24, 29544.29, 8407.21, -187500.02, -187500.02, -187500.02, -187500.02, -187500.02, -187500.02, 0.000, 0.000, 0.000, 02:37:41.655
25, 29578.62, 8431.17, -187500.02, -187500.02, -187500.02, -187500.02, -187500.02, -187500.02, 0.000, 0.000, 0.000, 02:37:41.655
26, 29589.37, 8430.59, -187500.02, -187500.02, -187500.02, -187500.02, -187500.02, -187500.02, 0.000, 0.000, 0.000, 02:37:41.655
27, 29574.11, 8425.78, -187500.02, -187500.02, -187500.02, -187500.02, -187500.02, -187500.02, 0.222, 0.992, -0.088, 02:37:41.655
28, 29558.15, 8417.96, -187500.02, -187500.02, -187500.02, -187500.02, -187500.02, -187500.02, 0.000, 0.000, 0.000, 02:37:41.655
29, 29572.16, 8422.47, -187500.02, -187500.02, -187500.02, -187500.02, -187500.02, -187500.02, 0.000, 0.000, 0.000, 02:37:41.655
30, 29578.22, 8433.69, -187500.02, -187500.02, -187500.02, -187500.02, -187500.02, -187500.02, 0.000, 0.000, 0.000, 02:37:41.655
31, 29575.38, 8431.95, -187500.02, -187500.02, -187500.02, -187500.02, -187500.02, -187500.02, 0.000, 0.000, 0.000, 02:37:41.655
32, 29546.26, 8397.37, -187500.02, -187500.02, -187500.02, -187500.02, -187500.02, -187500.02, 0.000, 0.000, 0.000, 02:37:41.655
33, 29561.07, 8398.58, -187500.02, -187500.02, -187500.02, -187500.02, -187500.02, -187500.02, 0.000, 0.000, 0.000, 02:37:41.656
34, 29577.86, 8428.91, -187500.02, -187500.02, -187500.02, -187500.02, -187500.02, -187500.02, 0.000, 0.000, 0.000, 02:37:41.656
35, 29570.15, 8412.21, -187500.02, -187500.02, -187500.02, -187500.02, -187500.02, -187500.02, 0.000, 0.000, 0.000, 02:37:41.656
36, 29548.18, 8377.77, -187500.02, -187500.02, -187500.02, -187500.02, -187500.02, -187500.02, 0.000, 0.000, 0.000, 02:37:41.656
37, 29561.86, 8407.38, -187500.02, -187500.02, -187500.02, -187500.02, -187500.02, -187500.02, 0.224, 0.994, -0.086, 02:37:41.656
38, 29588.01, 8452.00, -187500.02, -187500.02, -187500.02, -187500.02, -187500.02, -187500.02, 0.000, 0.000, 0.000, 02:37:41.656
39, 29575.96, 8441.83, -187500.02, -187500.02, -187500.02, -187500.02, -187500.02, -187500.02, 0.000, 0.000, 0.000, 02:37:41.656
40, 29542.70, 8399.74, -187500.02, -187500.02, -187500.02, -187500.02, -187500.02, -187500.02, 0.000, 0.000, 0.000, 02:37:41.656
41, 29558.24, 8399.32, -187500.02, -187500.02, -187500.02, -187500.02, -187500.02, -187500.02, 0.000, 0.000, 0.000, 02:37:41.656
42, 29595.70, 8417.06, -187500.02, -187500.02, -187500.02, -187500.02, -187500.02, -187500.02, 0.000, 0.000, 0.000, 02:37:41.656
43, 29575.07, 8430.47, -187500.02, -187500.02, -187500.02, -187500.02, -187500.02, -187500.02, 0.000, 0.000, 0.000, 02:37:41.657
44, 29553.05, 8411.23, -187500.02, -187500.02, -187500.02, -187500.02, -187500.02, -187500.02, 0.000, 0.000, 0.000, 02:37:41.657
45, 29546.64, 8394.60, -187500.02, -187500.02, -187500.02, -187500.02, -187500.02, -187500.02, 0.000, 0.000, 0.000, 02:37:41.657
46, 29563.22, 8416.57, -187500.02, -187500.02, -187500.02, -187500.02, -187500.02, -187500.02, 0.000, 0.000, 0.000, 02:37:41.657
47, 29571.00, 8425.18, -187500.02, -187500.02, -187500.02, -187500.02, -187500.02, -187500.02, 0.222, 0.996, -0.084, 02:37:41.657
48, 29550.70, 8405.37, -187500.02, -187500.02, -187500.02, -187500.02, -187500.02, -187500.02, 0.000, 0.000, 0.000, 02:37:41.657
49, 29535.06, 8384.61, -187500.02, -187500.02, -187500.02, -187500.02, -187500.02, -187500.02, 0.000, 0.000, 0.000, 02:37:41.657
50, 29572.36, 8414.18, -187500.02, -187500.02, -187500.02, -187500.02, -187500.02, -187500.02, 0.000, 0.000, 0.000, 02:37:41.657
51, 29591.23, 8428.69, -187500.02, -187500.02, -187500.02, -187500.02, -187500.02, -187500.02, 0.000, 0.000, 0.000, 02:37:41.657
52, 29578.24, 8430.68, -187500.02, -187500.02, -187500.02, -187500.02, -187500.02, -187500.02, 0.000, 0.000, 0.000, 02:37:41.658
53, 29542.28, 8390.73, -187500.02, -187500.02, -187500.02, -187500.02, -187500.02, -187500.02, 0.000, 0.000, 0.000, 02:37:41.658
54, 29558.75, 8397.51, -187500.02, -187500.02, -187500.02, -187500.02, -187500.02, -187500.02, 0.000, 0.000, 0.000, 02:37:41.658
55, 29566.28, 8417.98, -187500.02, -187500.02, -187500.02, -187500.02, -187500.02, -187500.02, 0.000, 0.000, 0.000, 02:37:41.658
56, 29558.44, 8411.43, -187500.02, -187500.02, -187500.02, -187500.02, -187500.02, -187500.02, 0.216, 0.992, -0.086, 02:37:41.658
57, 29552.47, 8386.40, -187500.02, -187500.02, -187500.02, -187500.02, -187500.02, -187500.02, 0.000, 0.000, 0.000, 02:37:41.658
58, 29571.11, 8413.96, -187500.02, -187500.02, -187500.02, -187500.02, -187500.02, -187500.02, 0.000, 0.000, 0.000, 02:37:41.658
59, 29577.41, 8430.16, -187500.02, -187500.02, -187500.02, -187500.02, -187500.02, -187500.02, 0.000, 0.000, 0.000, 02:37:41.658
60, 29567.02, 8410.33, -187500.02, -187500.02, -187500.02, -187500.02, -187500.02, -187500.02, 0.000, 0.000, 0.000, 02:37:41.658
61, 29543.30, 8401.55, -187500.02, -187500.02, -187500.02, -187500.02, -187500.02, -187500.02, 0.000, 0.000, 0.000, 02:37:41.658
62, 29543.06, 8394.93, -187500.02, -187500.02, -187500.02, -187500.02, -187500.02, -187500.02, 0.000, 0.000, 0.000, 02:37:41.659
63, 29576.99, 8410.11, -187500.02, -187500.02, -187500.02, -187500.02, -187500.02, -187500.02, 0.000, 0.000, 0.000, 02:37:41.659
64, 29575.31, 8417.62, -187500.02, -187500.02, -187500.02, -187500.02, -187500.02, -187500.02, 0.000, 0.000, 0.000, 02:37:41.659
65, 29563.56, 8401.80, -187500.02, -187500.02, -187500.02, -187500.02, -187500.02, -187500.02, 0.000, 0.000, 0.000, 02:37:41.659
66, 29561.92, 8388.90, -187500.02, -187500.02, -187500.02, -187500.02, -187500.02, -187500.02, 0.220, 0.992, -0.092, 02:37:41.659
67, 29587.25, 8420.77, -187500.02, -187500.02, -187500.02, -187500.02, -187500.02, -187500.02, 0.000, 0.000, 0.000, 02:37:41.659
68, 29580.14, 8413.82, -187500.02, -187500.02, -187500.02, -187500.02, -187500.02, -187500.02, 0.000, 0.000, 0.000, 02:37:41.659
69, 29560.52, 8387.13, -187500.02, -187500.02, -187500.02, -187500.02, -187500.02, -187500.02, 0.000, 0.000, 0.000, 02:37:41.659
70, 29557.19, 8369.86, -187500.02, -187500.02, -187500.02, -187500.02, -187500.02, -187500.02, 0.000, 0.000, 0.000, 02:37:41.659
71, 29590.71, 8406.78, -187500.02, -187500.02, -187500.02, -187500.02, -187500.02, -187500.02, 0.000, 0.000, 0.000, 02:37:41.660
72, 29597.26, 8438.01, -187500.02, -187500.02, -187500.02, -187500.02, -187500.02, -187500.02, 0.000, 0.000, 0.000, 02:37:41.660
73, 29586.24, 8422.90, -187500.02, -187500.02, -187500.02, -187500.02, -187500.02, -187500.02, 0.000, 0.000, 0.000, 02:37:41.660
74, 29562.44, 8384.16, -187500.02, -187500.02, -187500.02, -187500.02, -187500.02, -187500.02, 0.000, 0.000, 0.000, 02:37:41.660
75, 29577.08, 8391.58, -187500.02, -187500.02, -187500.02, -187500.02, -187500.02, -187500.02, 0.000, 0.000, 0.000, 02:37:41.660
76, 29582.02, 8412.77, -187500.02, -187500.02, -187500.02, -187500.02, -187500.02, -187500.02, 0.218, 0.988, -0.090, 02:37:41.660
77, 29571.78, 8415.66, -187500.02, -187500.02, -187500.02, -187500.02, -187500.02, -187500.02, 0.000, 0.000, 0.000, 02:37:41.660
78, 29558.93, 8395.94, -187500.02, -187500.02, -187500.02, -187500.02, -187500.02, -187500.02, 0.000, 0.000, 0.000, 02:37:41.660
79, 29586.51, 8411.88, -187500.02, -187500.02, -187500.02, -187500.02, -187500.02, -187500.02, 0.000, 0.000, 0.000, 02:37:41.660
80, 29605.55, 8431.37, -187500.02, -187500.02, -187500.02, -187500.02, -187500.02, -187500.02, 0.000, 0.000, 0.000, 02:37:41.660
81, 29582.51, 8410.60, -187500.02, -187500.02, -187500.02, -187500.02, -187500.02, -187500.02, 0.000, 0.000, 0.000, 02:37:41.661
82, 29560.29, 8390.69, -187500.02, -187500.02, -187500.02, -187500.02, -187500.02, -187500.02, 0.000, 0.000, 0.000, 02:37:41.661
83, 29575.11, 8410.16, -187500.02, -187500.02, -187500.02, -187500.02, -187500.02, -187500.02, 0.000, 0.000, 0.000, 02:37:41.661
84, 29593.44, 8426.58, -187500.02, -187500.02, -187500.02, -187500.02, -187500.02, -187500.02, 0.000, 0.000, 0.000, 02:37:41.661
85, 29598.60, 8417.71, -187500.02, -187500.02, -187500.02, -187500.02, -187500.02, -187500.02, 0.000, 0.000, 0.000, 02:37:41.661
86, 29562.48, 8352.87, -187500.02, -187500.02, -187500.02, -187500.02, -187500.02, -187500.02, 0.218, 0.992, -0.084, 02:37:41.661
87, 29571.11, 8359.69, -187500.02, -187500.02, -187500.02, -187500.02, -187500.02, -187500.02, 0.000, 0.000, 0.000, 02:37:41.661
88, 29578.51, 8434.50, -187500.02, -187500.02, -187500.02, -187500.02, -187500.02, -187500.02, 0.000, 0.000, 0.000, 02:37:41.661
89, 29591.81, 8440.71, -187500.02, -187500.02, -187500.02, -187500.02, -187500.02, -187500.02, 0.000, 0.000, 0.000, 02:37:41.661
90, 29580.10, 8429.18, -187500.02, -187500.02, -187500.02, -187500.02, -187500.02, -187500.02, 0.000, 0.000, 0.000, 02:37:41.662
91, 29571.56, 8421.00, -187500.02, -187500.02, -187500.02, -187500.02, -187500.02, -187500.02, 0.000, 0.000, 0.000, 02:37:42.126
92, 29606.92, 8452.16, -187500.02, -187500.02, -187500.02, -187500.02, -187500.02, -187500.02, 0.000, 0.000, 0.000, 02:37:42.126
93, 29601.51, 8455.11, -187500.02, -187500.02, -187500.02, -187500.02, -187500.02, -187500.02, 0.000, 0.000, 0.000, 02:37:42.126
94, 29569.14, 8433.60, -187500.02, -187500.02, -187500.02, -187500.02, -187500.02, -187500.02, 0.000, 0.000, 0.000, 02:37:42.126
95, 29564.29, 8423.75, -187500.02, -187500.02, -187500.02, -187500.02, -187500.02, -187500.02, 0.000, 0.000, 0.000, 02:37:42.127
96, 29595.34, 8454.88, -187500.02, -187500.02, -187500.02, -187500.02, -187500.02, -187500.02, 0.220, 0.992, -0.086, 02:37:42.127
97, 29608.21, 8470.51, -187500.02, -187500.02, -187500.02, -187500.02, -187500.02, -187500.02, 0.000, 0.000, 0.000, 02:37:42.127
98, 29590.24, 8446.19, -187500.02, -187500.02, -187500.02, -187500.02, -187500.02, -187500.02, 0.000, 0.000, 0.000, 02:37:42.127
99, 29577.57, 8441.83, -187500.02, -187500.02, -187500.02, -187500.02, -187500.02, -187500.02, 0.000, 0.000, 0.000, 02:37:42.127
100, 29613.13, 8476.88, -187500.02, -187500.02, -187500.02, -187500.02, -187500.02, -187500.02, 0.000, 0.000, 0.000, 02:37:42.127
101, 29620.46, 8481.88, -187500.02, -187500.02, -187500.02, -187500.02, -187500.02, -187500.02, 0.000, 0.000, 0.000, 02:37:42.128
102, 29590.36, 8454.77, -187500.02, -187500.02, -187500.02, -187500.02, -187500.02, -187500.02, 0.000, 0.000, 0.000, 02:37:42.128
103, 29565.25, 8433.67, -187500.02, -187500.02, -187500.02, -187500.02, -187500.02, -187500.02, 0.000, 0.000, 0.000, 02:37:42.128
104, 29586.02, 8445.07, -187500.02, -187500.02, -187500.02, -187500.02, -187500.02, -187500.02, 0.000, 0.000, 0.000, 02:37:42.128
105, 29604.66, 8490.56, -187500.02, -187500.02, -187500.02, -187500.02, -187500.02, -187500.02, 0.000, 0.000, 0.000, 02:37:42.128
106, 29594.40, 8474.46, -187500.02, -187500.02, -187500.02, -187500.02, -187500.02, -187500.02, 0.212, 0.978, -0.080, 02:37:42.128
107, 29562.37, 8453.65, -187500.02, -187500.02, -187500.02, -187500.02, -187500.02, -187500.02, 0.000, 0.000, 0.000, 02:37:42.129
108, 29576.41, 8456.96, -187500.02, -187500.02, -187500.02, -187500.02, -187500.02, -187500.02, 0.000, 0.000, 0.000, 02:37:42.129
109, 29624.49, 8495.79, -187500.02, -187500.02, -187500.02, -187500.02, -187500.02, -187500.02, 0.000, 0.000, 0.000, 02:37:42.129
110, 29626.10, 8514.47, -187500.02, -187500.02, -187500.02, -187500.02, -187500.02, -187500.02, 0.000, 0.000, 0.000, 02:37:42.129
111, 29601.89, 8488.88, -187500.02, -187500.02, -187500.02, -187500.02, -187500.02, -187500.02, 0.000, 0.000, 0.000, 02:37:42.129
112, 29603.81, 8479.60, -187500.02, -187500.02, -187500.02, -187500.02, -187500.02, -187500.02, 0.000, 0.000, 0.000, 02:37:42.129
113, 29623.26, 8499.88, -187500.02, -187500.02, -187500.02, -187500.02, -187500.02, -187500.02, 0.000, 0.000, 0.000, 02:37:42.130
114, 29621.51, 8493.39, -187500.02, -187500.02, -187500.02, -187500.02, -187500.02, -187500.02, 0.000, 0.000, 0.000, 02:37:42.130
115, 29579.89, 8457.79, -187500.02, -187500.02, -187500.02, -187500.02, -187500.02, -187500.02, 0.218, 0.990, -0.086, 02:37:42.130
116, 29568.43, 8451.06, -187500.02, -187500.02, -187500.02, -187500.02, -187500.02, -187500.02, 0.000, 0.000, 0.000, 02:37:42.130
117, 29589.08, 8466.19, -187500.02, -187500.02, -187500.02, -187500.02, -187500.02, -187500.02, 0.000, 0.000, 0.000, 02:37:42.130
118, 29596.30, 8474.40, -187500.02, -187500.02, -187500.02, -187500.02, -187500.02, -187500.02, 0.000, 0.000, 0.000, 02:37:42.130
119, 29573.21, 8477.30, -187500.02, -187500.02, -187500.02, -187500.02, -187500.02, -187500.02, 0.000, 0.000, 0.000, 02:37:42.131
120, 29564.81, 8449.70, -187500.02, -187500.02, -187500.02, -187500.02, -187500.02, -187500.02, 0.000, 0.000, 0.000, 02:37:42.131
121, 29607.37, 8470.44, -187500.02, -187500.02, -187500.02, -187500.02, -187500.02, -187500.02, 0.000, 0.000, 0.000, 02:37:42.131
122, 29603.16, 8494.74, -187500.02, -187500.02, -187500.02, -187500.02, -187500.02, -187500.02, 0.000, 0.000, 0.000, 02:37:42.131
123, 29586.20, 8475.60, -187500.02, -187500.02, -187500.02, -187500.02, -187500.02, -187500.02, 0.000, 0.000, 0.000, 02:37:42.131
124, 29572.47, 8453.85, -187500.02, -187500.02, -187500.02, -187500.02, -187500.02, -187500.02, 0.000, 0.000, 0.000, 02:37:42.131
125, 29594.69, 8473.34, -187500.02, -187500.02, -187500.02, -187500.02, -187500.02, -187500.02, 0.218, 0.998, -0.088, 02:37:42.132
126, 29609.44, 8492.12, -187500.02, -187500.02, -187500.02, -187500.02, -187500.02, -187500.02, 0.000, 0.000, 0.000, 02:37:42.132
127, 29598.51, 8490.29, -187500.02, -187500.02, -187500.02, -187500.02, -187500.02, -187500.02, 0.000, 0.000, 0.000, 02:37:42.132
128, 29558.66, 8454.30, -187500.02, -187500.02, -187500.02, -187500.02, -187500.02, -187500.02, 0.000, 0.000, 0.000, 02:37:42.132
129, 29585.68, 8474.04, -187500.02, -187500.02, -187500.02, -187500.02, -187500.02, -187500.02, 0.000, 0.000, 0.000, 02:37:42.132
130, 29621.96, 8503.65, -187500.02, -187500.02, -187500.02, -187500.02, -187500.02, -187500.02, 0.000, 0.000, 0.000, 02:37:42.132
131, 29611.32, 8470.93, -187500.02, -187500.02, -187500.02, -187500.02, -187500.02, -187500.02, 0.000, 0.000, 0.000, 02:37:42.133
132, 29585.35, 8479.42, -187500.02, -187500.02, -187500.02, -187500.02, -187500.02, -187500.02, 0.000, 0.000, 0.000, 02:37:42.133
133, 29595.25, 8498.45, -187500.02, -187500.02, -187500.02, -187500.02, -187500.02, -187500.02, 0.000, 0.000, 0.000, 02:37:42.133
134, 29610.09, 8501.80, -187500.02, -187500.02, -187500.02, -187500.02, -187500.02, -187500.02, 0.000, 0.000, 0.000, 02:37:42.133
135, 29589.60, 8490.35, -187500.02, -187500.02, -187500.02, -187500.02, -187500.02, -187500.02, 0.222, 1.000, -0.084, 02:37:42.133
136, 29555.49, 8470.06, -187500.02, -187500.02, -187500.02, -187500.02, -187500.02, -187500.02, 0.000, 0.000, 0.000, 02:37:42.133
137, 29562.91, 8462.62, -187500.02, -187500.02, -187500.02, -187500.02, -187500.02, -187500.02, 0.000, 0.000, 0.000, 02:37:42.133
138, 29590.67, 8480.12, -187500.02, -187500.02, -187500.02, -187500.02, -187500.02, -187500.02, 0.000, 0.000, 0.000, 02:37:42.134
139, 29587.36, 8481.62, -187500.02, -187500.02, -187500.02, -187500.02, -187500.02, -187500.02, 0.000, 0.000, 0.000, 02:37:42.134
140, 29571.51, 8464.45, -187500.02, -187500.02, -187500.02, -187500.02, -187500.02, -187500.02, 0.000, 0.000, 0.000, 02:37:42.134
141, 29560.18, 8456.18, -187500.02, -187500.02, -187500.02, -187500.02, -187500.02, -187500.02, 0.000, 0.000, 0.000, 02:37:42.134
142, 29580.54, 8481.03, -187500.02, -187500.02, -187500.02, -187500.02, -187500.02, -187500.02, 0.000, 0.000, 0.000, 02:37:42.134
143, 29587.52, 8477.10, -187500.02, -187500.02, -187500.02, -187500.02, -187500.02, -187500.02, 0.000, 0.000, 0.000, 02:37:42.134
144, 29579.40, 8455.35, -187500.02, -187500.02, -187500.02, -187500.02, -187500.02, -187500.02, 0.000, 0.000, 0.000, 02:37:42.134
145, 29565.75, 8453.27, -187500.02, -187500.02, -187500.02, -187500.02, -187500.02, -187500.02, 0.218, 0.996, -0.088, 02:37:42.135
146, 29582.89, 8477.97, -187500.02, -187500.02, -187500.02, -187500.02, -187500.02, -187500.02, 0.000, 0.000, 0.000, 02:37:42.135
147, 29584.41, 8472.36, -187500.02, -187500.02, -187500.02, -187500.02, -187500.02, -187500.02, 0.000, 0.000, 0.000, 02:37:42.135
148, 29571.63, 8459.78, -187500.02, -187500.02, -187500.02, -187500.02, -187500.02, -187500.02, 0.000, 0.000, 0.000, 02:37:42.135
149, 29554.01, 8443.91, -187500.02, -187500.02, -187500.02, -187500.02, -187500.02, -187500.02, 0.000, 0.000, 0.000, 02:37:42.135
150, 29585.13, 8444.00, -187500.02, -187500.02, -187500.02, -187500.02, -187500.02, -187500.02, 0.000, 0.000, 0.000, 02:37:42.135
151, 29603.39, 8470.82, -187500.02, -187500.02, -187500.02, -187500.02, -187500.02, -187500.02, 0.000, 0.000, 0.000, 02:37:42.135
152, 29583.74, 8473.39, -187500.02, -187500.02, -187500.02, -187500.02, -187500.02, -187500.02, 0.000, 0.000, 0.000, 02:37:42.136
153, 29559.78, 8460.67, -187500.02, -187500.02, -187500.02, -187500.02, -187500.02, -187500.02, 0.000, 0.000, 0.000, 02:37:42.136
154, 29567.22, 8459.93, -187500.02, -187500.02, -187500.02, -187500.02, -187500.02, -187500.02, 0.000, 0.000, 0.000, 02:37:42.136
155, 29583.74, 8482.93, -187500.02, -187500.02, -187500.02, -187500.02, -187500.02, -187500.02, 0.224, 0.998, -0.086, 02:37:42.136
156, 29575.67, 8485.19, -187500.02, -187500.02, -187500.02, -187500.02, -187500.02, -187500.02, 0.000, 0.000, 0.000, 02:37:42.136
157, 29552.65, 8461.10, -187500.02, -187500.02, -187500.02, -187500.02, -187500.02, -187500.02, 0.000, 0.000, 0.000, 02:37:42.137
158, 29578.60, 8470.04, -187500.02, -187500.02, -187500.02, -187500.02, -187500.02, -187500.02, 0.000, 0.000, 0.000, 02:37:42.137
159, 29606.07, 8482.60, -187500.02, -187500.02, -187500.02, -187500.02, -187500.02, -187500.02, 0.000, 0.000, 0.000, 02:37:42.137
160, 29588.97, 8458.32, -187500.02, -187500.02, -187500.02, -187500.02, -187500.02, -187500.02, 0.000, 0.000, 0.000, 02:37:42.137
161, 29559.55, 8473.50, -187500.02, -187500.02, -187500.02, -187500.02, -187500.02, -187500.02, 0.000, 0.000, 0.000, 02:37:42.137
162, 29567.69, 8468.03, -187500.02, -187500.02, -187500.02, -187500.02, -187500.02, -187500.02, 0.000, 0.000, 0.000, 02:37:42.137
163, 29582.15, 8484.14, -187500.02, -187500.02, -187500.02, -187500.02, -187500.02, -187500.02, 0.000, 0.000, 0.000, 02:37:42.138
164, 29580.88, 8477.30, -187500.02, -187500.02, -187500.02, -187500.02, -187500.02, -187500.02, 0.000, 0.000, 0.000, 02:37:42.138
165, 29569.52, 8464.90, -187500.02, -187500.02, -187500.02, -187500.02, -187500.02, -187500.02, 0.216, 0.994, -0.082, 02:37:42.138
166, 29557.95, 8460.83, -187500.02, -187500.02, -187500.02, -187500.02, -187500.02, -187500.02, 0.000, 0.000, 0.000, 02:37:42.138
167, 29594.13, 8480.05, -187500.02, -187500.02, -187500.02, -187500.02, -187500.02, -187500.02, 0.000, 0.000, 0.000, 02:37:42.139
168, 29595.29, 8486.02, -187500.02, -187500.02, -187500.02, -187500.02, -187500.02, -187500.02, 0.000, 0.000, 0.000, 02:37:42.139
169, 29570.78, 8465.34, -187500.02, -187500.02, -187500.02, -187500.02, -187500.02, -187500.02, 0.000, 0.000, 0.000, 02:37:42.139
170, 29556.18, 8451.78, -187500.02, -187500.02, -187500.02, -187500.02, -187500.02, -187500.02, 0.000, 0.000, 0.000, 02:37:42.139
171, 29586.47, 8461.50, -187500.02, -187500.02, -187500.02, -187500.02, -187500.02, -187500.02, 0.000, 0.000, 0.000, 02:37:42.139
172, 29605.24, 8484.07, -187500.02, -187500.02, -187500.02, -187500.02, -187500.02, -187500.02, 0.000, 0.000, 0.000, 02:37:42.139
173, 29582.09, 8478.71, -187500.02, -187500.02, -187500.02, -187500.02, -187500.02, -187500.02, 0.000, 0.000, 0.000, 02:37:42.139
174, 29552.43, 8434.94, -187500.02, -187500.02, -187500.02, -187500.02, -187500.02, -187500.02, 0.000, 0.000, 0.000, 02:37:42.139
175, 29596.93, 8477.64, -187500.02, -187500.02, -187500.02, -187500.02, -187500.02, -187500.02, 0.212, 0.998, -0.080, 02:37:42.140
176, 29604.88, 8493.64, -187500.02, -187500.02, -187500.02, -187500.02, -187500.02, -187500.02, 0.000, 0.000, 0.000, 02:37:42.140
177, 29585.64, 8468.41, -187500.02, -187500.02, -187500.02, -187500.02, -187500.02, -187500.02, 0.000, 0.000, 0.000, 02:37:42.140
178, 29563.91, 8450.43, -187500.02, -187500.02, -187500.02, -187500.02, -187500.02, -187500.02, 0.000, 0.000, 0.000, 02:37:42.140
179, 29575.22, 8465.30, -187500.02, -187500.02, -187500.02, -187500.02, -187500.02, -187500.02, 0.000, 0.000, 0.000, 02:37:42.140
180, 29590.45, 8480.54, -187500.02, -187500.02, -187500.02, -187500.02, -187500.02, -187500.02, 0.000, 0.000, 0.000, 02:37:42.140
181, 29583.07, 8479.38, -187500.02, -187500.02, -187500.02, -187500.02, -187500.02, -187500.02, 0.000, 0.000, 0.000, 02:37:42.140
182, 29571.74, 8449.54, -187500.02, -187500.02, -187500.02, -187500.02, -187500.02, -187500.02, 0.000, 0.000, 0.000, 02:37:42.141
183, 29572.65, 8453.32, -187500.02, -187500.02, -187500.02, -187500.02, -187500.02, -187500.02, 0.000, 0.000, 0.000, 02:37:42.141
184, 29595.12, 8490.40, -187500.02, -187500.02, -187500.02, -187500.02, -187500.02, -187500.02, 0.210, 0.992, -0.086, 02:37:42.141
185, 29572.05, 8476.63, -187500.02, -187500.02, -187500.02, -187500.02, -187500.02, -187500.02, 0.000, 0.000, 0.000, 02:37:42.141
186, 29556.78, 8452.16, -187500.02, -187500.02, -187500.02, -187500.02, -187500.02, -187500.02, 0.000, 0.000, 0.000, 02:37:42.141
187, 29576.77, 8440.44, -187500.02, -187500.02, -187500.02, -187500.02, -187500.02, -187500.02, 0.000, 0.000, 0.000, 02:37:42.141
188, 29593.51, 8444.02, -187500.02, -187500.02, -187500.02, -187500.02, -187500.02, -187500.02, 0.000, 0.000, 0.000, 02:37:42.142
189, 29586.29, 8473.77, -187500.02, -187500.02, -187500.02, -187500.02, -187500.02, -187500.02, 0.000, 0.000, 0.000, 02:37:42.142
190, 29557.81, 8452.33, -187500.02, -187500.02, -187500.02, -187500.02, -187500.02, -187500.02, 0.000, 0.000, 0.000, 02:37:42.142
191, 29552.38, 8445.11, -187500.02, -187500.02, -187500.02, -187500.02, -187500.02, -187500.02, 0.000, 0.000, 0.000, 02:37:42.142
192, 29583.99, 8465.23, -187500.02, -187500.02, -187500.02, -187500.02, -187500.02, -187500.02, 0.000, 0.000, 0.000, 02:37:42.142
193, 29595.74, 8474.84, -187500.02, -187500.02, -187500.02, -187500.02, -187500.02, -187500.02, 0.000, 0.000, 0.000, 02:37:42.142
194, 29581.19, 8455.42, -187500.02, -187500.02, -187500.02, -187500.02, -187500.02, -187500.02, 0.210, 0.992, -0.088, 02:37:42.142
195, 29558.57, 8435.48, -187500.02, -187500.02, -187500.02, -187500.02, -187500.02, -187500.02, 0.000, 0.000, 0.000, 02:37:42.142
196, 29590.63, 8468.00, -187500.02, -187500.02, -187500.02, -187500.02, -187500.02, -187500.02, 0.000, 0.000, 0.000, 02:37:42.143
197, 29592.63, 8483.92, -187500.02, -187500.02, -187500.02, -187500.02, -187500.02, -187500.02, 0.000, 0.000, 0.000, 02:37:42.143
198, 29593.64, 8471.71, -187500.02, -187500.02, -187500.02, -187500.02, -187500.02, -187500.02, 0.000, 0.000, 0.000, 02:37:42.143
199, 29573.28, 8443.84, -187500.02, -187500.02, -187500.02, -187500.02, -187500.02, -187500.02, 0.000, 0.000, 0.000, 02:37:42.143
200, 29582.94, 8432.35, -187500.02, -187500.02, -187500.02, -187500.02, -187500.02, -187500.02, 0.000, 0.000, 0.000, 02:37:42.143
201, 29606.29, 8473.34, -187500.02, -187500.02, -187500.02, -187500.02, -187500.02, -187500.02, 0.000, 0.000, 0.000, 02:37:42.143
202, 29587.29, 8450.99, -187500.02, -187500.02, -187500.02, -187500.02, -187500.02, -187500.02, 0.000, 0.000, 0.000, 02:37:42.143
203, 29557.28, 8463.38, -187500.02, -187500.02, -187500.02, -187500.02, -187500.02, -187500.02, 0.000, 0.000, 0.000, 02:37:42.143
204, 29563.29, 8463.76, -187500.02, -187500.02, -187500.02, -187500.02, -187500.02, -187500.02, 0.212, 0.998, -0.086, 02:37:42.144
205, 29583.90, 8476.92, -187500.02, -187500.02, -187500.02, -187500.02, -187500.02, -187500.02, 0.000, 0.000, 0.000, 02:37:42.144
206, 29591.76, 8472.92, -187500.02, -187500.02, -187500.02, -187500.02, -187500.02, -187500.02, 0.000, 0.000, 0.000, 02:37:42.144
207, 29577.82, 8460.00, -187500.02, -187500.02, -187500.02, -187500.02, -187500.02, -187500.02, 0.000, 0.000, 0.000, 02:37:42.144
208, 29569.86, 8452.22, -187500.02, -187500.02, -187500.02, -187500.02, -187500.02, -187500.02, 0.000, 0.000, 0.000, 02:37:42.144
209, 29599.88, 8473.72, -187500.02, -187500.02, -187500.02, -187500.02, -187500.02, -187500.02, 0.000, 0.000, 0.000, 02:37:42.144
210, 29610.49, 8478.87, -187500.02, -187500.02, -187500.02, -187500.02, -187500.02, -187500.02, 0.000, 0.000, 0.000, 02:37:42.144
211, 29571.74, 8452.45, -187500.02, -187500.02, -187500.02, -187500.02, -187500.02, -187500.02, 0.000, 0.000, 0.000, 02:37:42.606
212, 29579.09, 8438.50, -187500.02, -187500.02, -187500.02, -187500.02, -187500.02, -187500.02, 0.000, 0.000, 0.000, 02:37:42.606
213, 29592.50, 8448.56, -187500.02, -187500.02, -187500.02, -187500.02, -187500.02, -187500.02, 0.000, 0.000, 0.000, 02:37:42.606
214, 29604.97, 8456.47, -187500.02, -187500.02, -187500.02, -187500.02, -187500.02, -187500.02, 0.214, 0.992, -0.088, 02:37:42.607
215, 29598.94, 8451.04, -187500.02, -187500.02, -187500.02, -187500.02, -187500.02, -187500.02, 0.000, 0.000, 0.000, 02:37:42.607
216, 29604.68, 8448.02, -187500.02, -187500.02, -187500.02, -187500.02, -187500.02, -187500.02, 0.000, 0.000, 0.000, 02:37:42.607
217, 29617.89, 8497.08, -187500.02, -187500.02, -187500.02, -187500.02, -187500.02, -187500.02, 0.000, 0.000, 0.000, 02:37:42.607
218, 29598.89, 8496.19, -187500.02, -187500.02, -187500.02, -187500.02, -187500.02, -187500.02, 0.000, 0.000, 0.000, 02:37:42.607
219, 29581.39, 8468.81, -187500.02, -187500.02, -187500.02, -187500.02, -187500.02, -187500.02, 0.000, 0.000, 0.000, 02:37:42.607
220, 29561.05, 8441.27, -187500.02, -187500.02, -187500.02, -187500.02, -187500.02, -187500.02, 0.000, 0.000, 0.000, 02:37:42.607
221, 29589.44, 8457.07, -187500.02, -187500.02, -187500.02, -187500.02, -187500.02, -187500.02, 0.000, 0.000, 0.000, 02:37:42.607
222, 29596.19, 8474.17, -187500.02, -187500.02, -187500.02, -187500.02, -187500.02, -187500.02, 0.000, 0.000, 0.000, 02:37:42.608
223, 29578.24, 8456.60, -187500.02, -187500.02, -187500.02, -187500.02, -187500.02, -187500.02, 0.000, 0.000, 0.000, 02:37:42.608
224, 29555.49, 8428.42, -187500.02, -187500.02, -187500.02, -187500.02, -187500.02, -187500.02, 0.210, 0.994, -0.086, 02:37:42.608
225, 29580.48, 8443.50, -187500.02, -187500.02, -187500.02, -187500.02, -187500.02, -187500.02, 0.000, 0.000, 0.000, 02:37:42.608
226, 29598.51, 8460.07, -187500.02, -187500.02, -187500.02, -187500.02, -187500.02, -187500.02, 0.000, 0.000, 0.000, 02:37:42.608
227, 29587.03, 8438.48, -187500.02, -187500.02, -187500.02, -187500.02, -187500.02, -187500.02, 0.000, 0.000, 0.000, 02:37:42.608
228, 29558.79, 8430.12, -187500.02, -187500.02, -187500.02, -187500.02, -187500.02, -187500.02, 0.000, 0.000, 0.000, 02:37:42.608
229, 29573.21, 8444.73, -187500.02, -187500.02, -187500.02, -187500.02, -187500.02, -187500.02, 0.000, 0.000, 0.000, 02:37:42.609
230, 29608.53, 8459.78, -187500.02, -187500.02, -187500.02, -187500.02, -187500.02, -187500.02, 0.000, 0.000, 0.000, 02:37:42.609
231, 29611.50, 8458.93, -187500.02, -187500.02, -187500.02, -187500.02, -187500.02, -187500.02, 0.000, 0.000, 0.000, 02:37:42.609
232, 29571.11, 8460.60, -187500.02, -187500.02, -187500.02, -187500.02, -187500.02, -187500.02, 0.000, 0.000, 0.000, 02:37:42.609
233, 29571.51, 8448.56, -187500.02, -187500.02, -187500.02, -187500.02, -187500.02, -187500.02, 0.000, 0.000, 0.000, 02:37:42.609
234, 29595.97, 8466.80, -187500.02, -187500.02, -187500.02, -187500.02, -187500.02, -187500.02, 0.214, 0.994, -0.082, 02:37:42.609
235, 29591.54, 8464.85, -187500.02, -187500.02, -187500.02, -187500.02, -187500.02, -187500.02, 0.000, 0.000, 0.000, 02:37:42.609
236, 29565.84, 8442.83, -187500.02, -187500.02, -187500.02, -187500.02, -187500.02, -187500.02, 0.000, 0.000, 0.000, 02:37:42.609
237, 29566.86, 8430.14, -187500.02, -187500.02, -187500.02, -187500.02, -187500.02, -187500.02, 0.000, 0.000, 0.000, 02:37:42.610
238, 29605.85, 8459.22, -187500.02, -187500.02, -187500.02, -187500.02, -187500.02, -187500.02, 0.000, 0.000, 0.000, 02:37:42.610
239, 29595.21, 8459.55, -187500.02, -187500.02, -187500.02, -187500.02, -187500.02, -187500.02, 0.000, 0.000, 0.000, 02:37:42.610
240, 29576.41, 8452.07, -187500.02, -187500.02, -187500.02, -187500.02, -187500.02, -187500.02, 0.000, 0.000, 0.000, 02:37:42.610
241, 29571.27, 8434.01, -187500.02, -187500.02, -187500.02, -187500.02, -187500.02, -187500.02, 0.000, 0.000, 0.000, 02:37:42.610
242, 29600.21, 8462.91, -187500.02, -187500.02, -187500.02, -187500.02, -187500.02, -187500.02, 0.000, 0.000, 0.000, 02:37:42.610
243, 29601.42, 8477.21, -187500.02, -187500.02, -187500.02, -187500.02, -187500.02, -187500.02, 0.216, 1.000, -0.082, 02:37:42.611
244, 29584.54, 8443.48, -187500.02, -187500.02, -187500.02, -187500.02, -187500.02, -187500.02, 0.000, 0.000, 0.000, 02:37:42.611
245, 29567.67, 8423.23, -187500.02, -187500.02, -187500.02, -187500.02, -187500.02, -187500.02, 0.000, 0.000, 0.000, 02:37:42.611
246, 29582.13, 8438.54, -187500.02, -187500.02, -187500.02, -187500.02, -187500.02, -187500.02, 0.000, 0.000, 0.000, 02:37:42.611
247, 29607.81, 8459.15, -187500.02, -187500.02, -187500.02, -187500.02, -187500.02, -187500.02, 0.000, 0.000, 0.000, 02:37:42.611
248, 29580.19, 8440.60, -187500.02, -187500.02, -187500.02, -187500.02, -187500.02, -187500.02, 0.000, 0.000, 0.000, 02:37:42.611
249, 29553.56, 8407.12, -187500.02, -187500.02, -187500.02, -187500.02, -187500.02, -187500.02, 0.000, 0.000, 0.000, 02:37:42.611
250, 29584.34, 8458.17, -187500.02, -187500.02, -187500.02, -187500.02, -187500.02, -187500.02, 0.000, 0.000, 0.000, 02:37:42.611
251, 29606.47, 8464.74, -187500.02, -187500.02, -187500.02, -187500.02, -187500.02, -187500.02, 0.000, 0.000, 0.000, 02:37:42.612
252, 29593.98, 8455.53, -187500.02, -187500.02, -187500.02, -187500.02, -187500.02, -187500.02, 0.000, 0.000, 0.000, 02:37:42.612
253, 29577.41, 8440.42, -187500.02, -187500.02, -187500.02, -187500.02, -187500.02, -187500.02, 0.214, 0.994, -0.086, 02:37:42.612
254, 29593.26, 8435.84, -187500.02, -187500.02, -187500.02, -187500.02, -187500.02, -187500.02, 0.000, 0.000, 0.000, 02:37:42.612
255, 29606.07, 8451.40, -187500.02, -187500.02, -187500.02, -187500.02, -187500.02, -187500.02, 0.000, 0.000, 0.000, 02:37:42.612
0, 29593.66, 8437.31, -187500.02, -187500.02, -187500.02, -187500.02, -187500.02, -187500.02, 0.000, 0.000, 0.000, 02:37:42.612
1, 29573.73, 8418.70, -187500.02, -187500.02, -187500.02, -187500.02, -187500.02, -187500.02, 0.000, 0.000, 0.000, 02:37:42.612
2, 29581.93, 8427.61, -187500.02, -187500.02, -187500.02, -187500.02, -187500.02, -187500.02, 0.000, 0.000, 0.000, 02:37:42.612
3, 29622.30, 8472.52, -187500.02, -187500.02, -187500.02, -187500.02, -187500.02, -187500.02, 0.000, 0.000, 0.000, 02:37:42.613
4, 29614.36, 8474.87, -187500.02, -187500.02, -187500.02, -187500.02, -187500.02, -187500.02, 0.000, 0.000, 0.000, 02:37:42.613
5, 29591.54, 8452.67, -187500.02, -187500.02, -187500.02, -187500.02, -187500.02, -187500.02, 0.000, 0.000, 0.000, 02:37:42.613
6, 29572.85, 8433.07, -187500.02, -187500.02, -187500.02, -187500.02, -187500.02, -187500.02, 0.000, 0.000, 0.000, 02:37:42.613
7, 29609.53, 8456.02, -187500.02, -187500.02, -187500.02, -187500.02, -187500.02, -187500.02, 0.216, 0.996, -0.094, 02:37:42.613
8, 29613.36, 8438.16, -187500.02, -187500.02, -187500.02, -187500.02, -187500.02, -187500.02, 0.000, 0.000, 0.000, 02:37:42.613
9, 29590.15, 8428.37, -187500.02, -187500.02, -187500.02, -187500.02, -187500.02, -187500.02, 0.000, 0.000, 0.000, 02:37:42.614
10, 29571.00, 8417.58, -187500.02, -187500.02, -187500.02, -187500.02, -187500.02, -187500.02, 0.000, 0.000, 0.000, 02:37:42.614
11, 29605.53, 8455.89, -187500.02, -187500.02, -187500.02, -187500.02, -187500.02, -187500.02, 0.000, 0.000, 0.000, 02:37:42.614
12, 29608.60, 8461.68, -187500.02, -187500.02, -187500.02, -187500.02, -187500.02, -187500.02, 0.000, 0.000, 0.000, 02:37:42.614
13, 29584.07, 8442.90, -187500.02, -187500.02, -187500.02, -187500.02, -187500.02, -187500.02, 0.000, 0.000, 0.000, 02:37:42.614
14, 29566.62, 8407.56, -187500.02, -187500.02, -187500.02, -187500.02, -187500.02, -187500.02, 0.000, 0.000, 0.000, 02:37:42.614
15, 29595.25, 8429.65, -187500.02, -187500.02, -187500.02, -187500.02, -187500.02, -187500.02, 0.000, 0.000, 0.000, 02:37:42.614
16, 29612.89, 8450.72, -187500.02, -187500.02, -187500.02, -187500.02, -187500.02, -187500.02, 0.000, 0.000, 0.000, 02:37:42.614
17, 29598.87, 8425.78, -187500.02, -187500.02, -187500.02, -187500.02, -187500.02, -187500.02, 0.210, 0.992, -0.086, 02:37:42.614
18, 29581.95, 8429.58, -187500.02, -187500.02, -187500.02, -187500.02, -187500.02, -187500.02, 0.000, 0.000, 0.000, 02:37:42.615
19, 29599.43, 8444.35, -187500.02, -187500.02, -187500.02, -187500.02, -187500.02, -187500.02, 0.000, 0.000, 0.000, 02:37:42.615
20, 29610.72, 8449.99, -187500.02, -187500.02, -187500.02, -187500.02, -187500.02, -187500.02, 0.000, 0.000, 0.000, 02:37:42.615
21, 29597.64, 8455.51, -187500.02, -187500.02, -187500.02, -187500.02, -187500.02, -187500.02, 0.000, 0.000, 0.000, 02:37:42.615
22, 29569.77, 8425.56, -187500.02, -187500.02, -187500.02, -187500.02, -187500.02, -187500.02, 0.000, 0.000, 0.000, 02:37:42.615
23, 29571.87, 8409.06, -187500.02, -187500.02, -187500.02, -187500.02, -187500.02, -187500.02, 0.000, 0.000, 0.000, 02:37:42.615
24, 29606.67, 8429.38, -187500.02, -187500.02, -187500.02, -187500.02, -187500.02, -187500.02, 0.000, 0.000, 0.000, 02:37:42.615
25, 29607.07, 8430.21, -187500.02, -187500.02, -187500.02, -187500.02, -187500.02, -187500.02, 0.000, 0.000, 0.000, 02:37:42.615
26, 29576.03, 8438.97, -187500.02, -187500.02, -187500.02, -187500.02, -187500.02, -187500.02, 0.000, 0.000, 0.000, 02:37:42.616
27, 29568.00, 8424.51, -187500.02, -187500.02, -187500.02, -187500.02, -187500.02, -187500.02, 0.214, 0.990, -0.086, 02:37:42.616
28, 29611.50, 8438.36, -187500.02, -187500.02, -187500.02, -187500.02, -187500.02, -187500.02, 0.000, 0.000, 0.000, 02:37:42.616
29, 29614.34, 8444.27, -187500.02, -187500.02, -187500.02, -187500.02, -187500.02, -187500.02, 0.000, 0.000, 0.000, 02:37:42.616
30, 29593.55, 8433.20, -187500.02, -187500.02, -187500.02, -187500.02, -187500.02, -187500.02, 0.000, 0.000, 0.000, 02:37:42.616
31, 29588.84, 8426.99, -187500.02, -187500.02, -187500.02, -187500.02, -187500.02, -187500.02, 0.000, 0.000, 0.000, 02:37:42.616
32, 29603.41, 8427.23, -187500.02, -187500.02, -187500.02, -187500.02, -187500.02, -187500.02, 0.000, 0.000, 0.000, 02:37:42.616
33, 29601.71, 8427.39, -187500.02, -187500.02, -187500.02, -187500.02, -187500.02, -187500.02, 0.000, 0.000, 0.000, 02:37:42.616
34, 29579.65, 8425.33, -187500.02, -187500.02, -187500.02, -187500.02, -187500.02, -187500.02, 0.000, 0.000, 0.000, 02:37:42.616
35, 29561.39, 8407.68, -187500.02, -187500.02, -187500.02, -187500.02, -187500.02, -187500.02, 0.000, 0.000, 0.000, 02:37:42.617
36, 29593.53, 8430.12, -187500.02, -187500.02, -187500.02, -187500.02, -187500.02, -187500.02, 0.000, 0.000, 0.000, 02:37:42.617
37, 29593.24, 8436.91, -187500.02, -187500.02, -187500.02, -187500.02, -187500.02, -187500.02, 0.214, 0.992, -0.088, 02:37:42.617
38, 29568.23, 8425.00, -187500.02, -187500.02, -187500.02, -187500.02, -187500.02, -187500.02, 0.000, 0.000, 0.000, 02:37:42.617
39, 29571.56, 8410.07, -187500.02, -187500.02, -187500.02, -187500.02, -187500.02, -187500.02, 0.000, 0.000, 0.000, 02:37:42.617
40, 29613.74, 8431.26, -187500.02, -187500.02, -187500.02, -187500.02, -187500.02, -187500.02, 0.000, 0.000, 0.000, 02:37:42.617
41, 29628.42, 8446.19, -187500.02, -187500.02, -187500.02, -187500.02, -187500.02, -187500.02, 0.000, 0.000, 0.000, 02:37:42.617
42, 29616.24, 8448.47, -187500.02, -187500.02, -187500.02, -187500.02, -187500.02, -187500.02, 0.000, 0.000, 0.000, 02:37:42.617
43, 29578.40, 8423.12, -187500.02, -187500.02, -187500.02, -187500.02, -187500.02, -187500.02, 0.000, 0.000, 0.000, 02:37:42.617
44, 29592.86, 8426.14, -187500.02, -187500.02, -187500.02, -187500.02, -187500.02, -187500.02, 0.000, 0.000, 0.000, 02:37:42.618
45, 29605.02, 8447.24, -187500.02, -187500.02, -187500.02, -187500.02, -187500.02, -187500.02, 0.000, 0.000, 0.000, 02:37:42.618
46, 29584.68, 8427.79, -187500.02, -187500.02, -187500.02, -187500.02, -187500.02, -187500.02, 0.214, 0.996, -0.086, 02:37:42.618
47, 29556.47, 8399.43, -187500.02, -187500.02, -187500.02, -187500.02, -187500.02, -187500.02, 0.000, 0.000, 0.000, 02:37:42.618
48, 29559.42, 8389.24, -187500.02, -187500.02, -187500.02, -187500.02, -187500.02, -187500.02, 0.000, 0.000, 0.000, 02:37:42.618
49, 29588.68, 8426.94, -187500.02, -187500.02, -187500.02, -187500.02, -187500.02, -187500.02, 0.000, 0.000, 0.000, 02:37:42.618
50, 29601.31, 8435.46, -187500.02, -187500.02, -187500.02, -187500.02, -187500.02, -187500.02, 0.000, 0.000, 0.000, 02:37:42.618
51, 29573.50, 8425.02, -187500.02, -187500.02, -187500.02, -187500.02, -187500.02, -187500.02, 0.000, 0.000, 0.000, 02:37:42.618
52, 29583.16, 8414.87, -187500.02, -187500.02, -187500.02, -187500.02, -187500.02, -187500.02, 0.000, 0.000, 0.000, 02:37:42.618
53, 29605.40, 8446.72, -187500.02, -187500.02, -187500.02, -187500.02, -187500.02, -187500.02, 0.000, 0.000, 0.000, 02:37:42.618
54, 29598.47, 8443.68, -187500.02, -187500.02, -187500.02, -187500.02, -187500.02, -187500.02, 0.000, 0.000, 0.000, 02:37:42.619
55, 29582.29, 8432.84, -187500.02, -187500.02, -187500.02, -187500.02, -187500.02, -187500.02, 0.000, 0.000, 0.000, 02:37:42.619
56, 29574.93, 8414.13, -187500.02, -187500.02, -187500.02, -187500.02, -187500.02, -187500.02, 0.216, 0.998, -0.086, 02:37:42.619
57, 29613.60, 8432.49, -187500.02, -187500.02, -187500.02, -187500.02, -187500.02, -187500.02, 0.000, 0.000, 0.000, 02:37:42.619
58, 29623.82, 8477.41, -187500.02, -187500.02, -187500.02, -187500.02, -187500.02, -187500.02, 0.000, 0.000, 0.000, 02:37:42.619
59, 29605.20, 8484.14, -187500.02, -187500.02, -187500.02, -187500.02, -187500.02, -187500.02, 0.000, 0.000, 0.000, 02:37:42.619
60, 29585.80, 8456.13, -187500.02, -187500.02, -187500.02, -187500.02, -187500.02, -187500.02, 0.000, 0.000, 0.000, 02:37:42.619
61, 29616.69, 8475.40, -187500.02, -187500.02, -187500.02, -187500.02, -187500.02, -187500.02, 0.000, 0.000, 0.000, 02:37:42.619
62, 29627.37, 8485.39, -187500.02, -187500.02, -187500.02, -187500.02, -187500.02, -187500.02, 0.000, 0.000, 0.000, 02:37:42.620
63, 29608.75, 8480.81, -187500.02, -187500.02, -187500.02, -187500.02, -187500.02, -187500.02, 0.000, 0.000, 0.000, 02:37:42.620
64, 29573.50, 8465.79, -187500.02, -187500.02, -187500.02, -187500.02, -187500.02, -187500.02, 0.000, 0.000, 0.000, 02:37:42.620
65, 29597.60, 8477.64, -187500.02, -187500.02, -187500.02, -187500.02, -187500.02, -187500.02, 0.000, 0.000, 0.000, 02:37:42.620
66, 29627.57, 8505.42, -187500.02, -187500.02, -187500.02, -187500.02, -187500.02, -187500.02, 0.218, 0.996, -0.084, 02:37:42.620
67, 29616.33, 8498.49, -187500.02, -187500.02, -187500.02, -187500.02, -187500.02, -187500.02, 0.000, 0.000, 0.000, 02:37:42.620
68, 29596.79, 8484.12, -187500.02, -187500.02, -187500.02, -187500.02, -187500.02, -187500.02, 0.000, 0.000, 0.000, 02:37:42.620
69, 29621.25, 8484.57, -187500.02, -187500.02, -187500.02, -187500.02, -187500.02, -187500.02, 0.000, 0.000, 0.000, 02:37:42.620
70, 29634.12, 8498.78, -187500.02, -187500.02, -187500.02, -187500.02, -187500.02, -187500.02, 0.000, 0.000, 0.000, 02:37:42.620
71, 29607.77, 8484.10, -187500.02, -187500.02, -187500.02, -187500.02, -187500.02, -187500.02, 0.000, 0.000, 0.000, 02:37:42.621
72, 29586.22, 8462.10, -187500.02, -187500.02, -187500.02, -187500.02, -187500.02, -187500.02, 0.000, 0.000, 0.000, 02:37:42.621
73, 29597.49, 8469.90, -187500.02, -187500.02, -187500.02, -187500.02, -187500.02, -187500.02, 0.000, 0.000, 0.000, 02:37:42.621
74, 29623.12, 8499.34, -187500.02, -187500.02, -187500.02, -187500.02, -187500.02, -187500.02, 0.000, 0.000, 0.000, 02:37:42.621
75, 29621.11, 8513.31, -187500.02, -187500.02, -187500.02, -187500.02, -187500.02, -187500.02, 0.000, 0.000, 0.000, 02:37:43.092
76, 29592.50, 8493.82, -187500.02, -187500.02, -187500.02, -187500.02, -187500.02, -187500.02, 0.212, 0.992, -0.080, 02:37:43.092
77, 29597.82, 8482.02, -187500.02, -187500.02, -187500.02, -187500.02, -187500.02, -187500.02, 0.000, 0.000, 0.000, 02:37:43.092
78, 29632.22, 8505.22, -187500.02, -187500.02, -187500.02, -187500.02, -187500.02, -187500.02, 0.000, 0.000, 0.000, 02:37:43.092
79, 29624.46, 8509.02, -187500.02, -187500.02, -187500.02, -187500.02, -187500.02, -187500.02, 0.000, 0.000, 0.000, 02:37:43.093
80, 29582.87, 8472.45, -187500.02, -187500.02, -187500.02, -187500.02, -187500.02, -187500.02, 0.000, 0.000, 0.000, 02:37:43.093
81, 29579.09, 8474.53, -187500.02, -187500.02, -187500.02, -187500.02, -187500.02, -187500.02, 0.000, 0.000, 0.000, 02:37:43.093
82, 29618.92, 8509.76, -187500.02, -187500.02, -187500.02, -187500.02, -187500.02, -187500.02, 0.000, 0.000, 0.000, 02:37:43.093
83, 29628.71, 8526.36, -187500.02, -187500.02, -187500.02, -187500.02, -187500.02, -187500.02, 0.000, 0.000, 0.000, 02:37:43.093
84, 29597.60, 8501.17, -187500.02, -187500.02, -187500.02, -187500.02, -187500.02, -187500.02, 0.000, 0.000, 0.000, 02:37:43.093
85, 29572.81, 8482.84, -187500.02, -187500.02, -187500.02, -187500.02, -187500.02, -187500.02, 0.000, 0.000, 0.000, 02:37:43.093
86, 29607.19, 8512.86, -187500.02, -187500.02, -187500.02, -187500.02, -187500.02, -187500.02, 0.210, 0.992, -0.082, 02:37:43.093
87, 29620.44, 8522.16, -187500.02, -187500.02, -187500.02, -187500.02, -187500.02, -187500.02, 0.000, 0.000, 0.000, 02:37:43.093
88, 29602.58, 8504.46, -187500.02, -187500.02, -187500.02, -187500.02, -187500.02, -187500.02, 0.000, 0.000, 0.000, 02:37:43.094
89, 29589.37, 8462.44, -187500.02, -187500.02, -187500.02, -187500.02, -187500.02, -187500.02, 0.000, 0.000, 0.000, 02:37:43.094
90, 29624.51, 8514.20, -187500.02, -187500.02, -187500.02, -187500.02, -187500.02, -187500.02, 0.000, 0.000, 0.000, 02:37:43.094
91, 29628.78, 8525.04, -187500.02, -187500.02, -187500.02, -187500.02, -187500.02, -187500.02, 0.000, 0.000, 0.000, 02:37:43.094
92, 29610.65, 8505.08, -187500.02, -187500.02, -187500.02, -187500.02, -187500.02, -187500.02, 0.000, 0.000, 0.000, 02:37:43.094
93, 29581.04, 8497.42, -187500.02, -187500.02, -187500.02, -187500.02, -187500.02, -187500.02, 0.000, 0.000, 0.000, 02:37:43.094
94, 29603.41, 8498.74, -187500.02, -187500.02, -187500.02, -187500.02, -187500.02, -187500.02, 0.000, 0.000, 0.000, 02:37:43.094
95, 29624.62, 8529.78, -187500.02, -187500.02, -187500.02, -187500.02, -187500.02, -187500.02, 0.000, 0.000, 0.000, 02:37:43.094
96, 29617.42, 8522.23, -187500.02, -187500.02, -187500.02, -187500.02, -187500.02, -187500.02, 0.216, 0.992, -0.086, 02:37:43.094
97, 29593.78, 8499.23, -187500.02, -187500.02, -187500.02, -187500.02, -187500.02, -187500.02, 0.000, 0.000, 0.000, 02:37:43.095
98, 29590.56, 8492.95, -187500.02, -187500.02, -187500.02, -187500.02, -187500.02, -187500.02, 0.000, 0.000, 0.000, 02:37:43.095
99, 29615.48, 8523.26, -187500.02, -187500.02, -187500.02, -187500.02, -187500.02, -187500.02, 0.000, 0.000, 0.000, 02:37:43.095
100, 29615.01, 8521.29, -187500.02, -187500.02, -187500.02, -187500.02, -187500.02, -187500.02, 0.000, 0.000, 0.000, 02:37:43.095
101, 29589.35, 8505.46, -187500.02, -187500.02, -187500.02, -187500.02, -187500.02, -187500.02, 0.000, 0.000, 0.000, 02:37:43.095
102, 29586.87, 8489.68, -187500.02, -187500.02, -187500.02, -187500.02, -187500.02, -187500.02, 0.000, 0.000, 0.000, 02:37:43.095
103, 29613.47, 8510.05, -187500.02, -187500.02, -187500.02, -187500.02, -187500.02, -187500.02, 0.000, 0.000, 0.000, 02:37:43.095
104, 29623.26, 8527.86, -187500.02, -187500.02, -187500.02, -187500.02, -187500.02, -187500.02, 0.000, 0.000, 0.000, 02:37:43.095
105, 29597.62, 8508.66, -187500.02, -187500.02, -187500.02, -187500.02, -187500.02, -187500.02, 0.000, 0.000, 0.000, 02:37:43.095
106, 29605.91, 8482.35, -187500.02, -187500.02, -187500.02, -187500.02, -187500.02, -187500.02, 0.218, 0.992, -0.088, 02:37:43.096
107, 29621.11, 8529.00, -187500.02, -187500.02, -187500.02, -187500.02, -187500.02, -187500.02, 0.000, 0.000, 0.000, 02:37:43.096
108, 29610.21, 8523.88, -187500.02, -187500.02, -187500.02, -187500.02, -187500.02, -187500.02, 0.000, 0.000, 0.000, 02:37:43.096
109, 29583.63, 8493.46, -187500.02, -187500.02, -187500.02, -187500.02, -187500.02, -187500.02, 0.000, 0.000, 0.000, 02:37:43.096
110, 29566.46, 8457.32, -187500.02, -187500.02, -187500.02, -187500.02, -187500.02, -187500.02, 0.000, 0.000, 0.000, 02:37:43.096
111, 29601.44, 8490.56, -187500.02, -187500.02, -187500.02, -187500.02, -187500.02, -187500.02, 0.000, 0.000, 0.000, 02:37:43.096
112, 29611.46, 8517.09, -187500.02, -187500.02, -187500.02, -187500.02, -187500.02, -187500.02, 0.000, 0.000, 0.000, 02:37:43.096
113, 29601.62, 8508.33, -187500.02, -187500.02, -187500.02, -187500.02, -187500.02, -187500.02, 0.000, 0.000, 0.000, 02:37:43.096
114, 29573.26, 8466.06, -187500.02, -187500.02, -187500.02, -187500.02, -187500.02, -187500.02, 0.000, 0.000, 0.000, 02:37:43.096
115, 29605.78, 8489.84, -187500.02, -187500.02, -187500.02, -187500.02, -187500.02, -187500.02, 0.218, 0.986, -0.084, 02:37:43.097
116, 29621.42, 8499.09, -187500.02, -187500.02, -187500.02, -187500.02, -187500.02, -187500.02, 0.000, 0.000, 0.000, 02:37:43.097
117, 29605.24, 8490.24, -187500.02, -187500.02, -187500.02, -187500.02, -187500.02, -187500.02, 0.000, 0.000, 0.000, 02:37:43.097
118, 29586.29, 8484.16, -187500.02, -187500.02, -187500.02, -187500.02, -187500.02, -187500.02, 0.000, 0.000, 0.000, 02:37:43.097
119, 29607.63, 8495.27, -187500.02, -187500.02, -187500.02, -187500.02, -187500.02, -187500.02, 0.000, 0.000, 0.000, 02:37:43.097
120, 29614.21, 8503.72, -187500.02, -187500.02, -187500.02, -187500.02, -187500.02, -187500.02, 0.000, 0.000, 0.000, 02:37:43.097
121, 29607.03, 8507.03, -187500.02, -187500.02, -187500.02, -187500.02, -187500.02, -187500.02, 0.000, 0.000, 0.000, 02:37:43.098
122, 29582.94, 8496.05, -187500.02, -187500.02, -187500.02, -187500.02, -187500.02, -187500.02, 0.000, 0.000, 0.000, 02:37:43.098
123, 29589.78, 8477.90, -187500.02, -187500.02, -187500.02, -187500.02, -187500.02, -187500.02, 0.000, 0.000, 0.000, 02:37:43.098
124, 29617.54, 8483.94, -187500.02, -187500.02, -187500.02, -187500.02, -187500.02, -187500.02, 0.000, 0.000, 0.000, 02:37:43.098
125, 29613.36, 8515.61, -187500.02, -187500.02, -187500.02, -187500.02, -187500.02, -187500.02, 0.214, 0.996, -0.086, 02:37:43.098
126, 29585.26, 8503.99, -187500.02, -187500.02, -187500.02, -187500.02, -187500.02, -187500.02, 0.000, 0.000, 0.000, 02:37:43.098
127, 29568.94, 8477.90, -187500.02, -187500.02, -187500.02, -187500.02, -187500.02, -187500.02, 0.000, 0.000, 0.000, 02:37:43.098
128, 29604.42, 8500.88, -187500.02, -187500.02, -187500.02, -187500.02, -187500.02, -187500.02, 0.000, 0.000, 0.000, 02:37:43.098
129, 29638.43, 8529.72, -187500.02, -187500.02, -187500.02, -187500.02, -187500.02, -187500.02, 0.000, 0.000, 0.000, 02:37:43.099
130, 29628.78, 8533.40, -187500.02, -187500.02, -187500.02, -187500.02, -187500.02, -187500.02, 0.000, 0.000, 0.000, 02:37:43.099
131, 29604.19, 8512.30, -187500.02, -187500.02, -187500.02, -187500.02, -187500.02, -187500.02, 0.000, 0.000, 0.000, 02:37:43.099
132, 29629.79, 8519.68, -187500.02, -187500.02, -187500.02, -187500.02, -187500.02, -187500.02, 0.000, 0.000, 0.000, 02:37:43.099
133, 29630.01, 8512.80, -187500.02, -187500.02, -187500.02, -187500.02, -187500.02, -187500.02, 0.000, 0.000, 0.000, 02:37:43.099
134, 29599.63, 8494.83, -187500.02, -187500.02, -187500.02, -187500.02, -187500.02, -187500.02, 0.000, 0.000, 0.000, 02:37:43.099
135, 29584.61, 8484.16, -187500.02, -187500.02, -187500.02, -187500.02, -187500.02, -187500.02, 0.218, 0.994, -0.084, 02:37:43.099
136, 29619.46, 8490.73, -187500.02, -187500.02, -187500.02, -187500.02, -187500.02, -187500.02, 0.000, 0.000, 0.000, 02:37:43.099
137, 29619.05, 8482.91, -187500.02, -187500.02, -187500.02, -187500.02, -187500.02, -187500.02, 0.000, 0.000, 0.000, 02:37:43.099
138, 29618.07, 8498.98, -187500.02, -187500.02, -187500.02, -187500.02, -187500.02, -187500.02, 0.000, 0.000, 0.000, 02:37:43.100
139, 29589.66, 8508.30, -187500.02, -187500.02, -187500.02, -187500.02, -187500.02, -187500.02, 0.000, 0.000, 0.000, 02:37:43.100
140, 29606.29, 8507.83, -187500.02, -187500.02, -187500.02, -187500.02, -187500.02, -187500.02, 0.000, 0.000, 0.000, 02:37:43.100
141, 29627.86, 8519.70, -187500.02, -187500.02, -187500.02, -187500.02, -187500.02, -187500.02, 0.000, 0.000, 0.000, 02:37:43.100
142, 29621.07, 8525.85, -187500.02, -187500.02, -187500.02, -187500.02, -187500.02, -187500.02, 0.000, 0.000, 0.000, 02:37:43.100
143, 29596.46, 8491.56, -187500.02, -187500.02, -187500.02, -187500.02, -187500.02, -187500.02, 0.000, 0.000, 0.000, 02:37:43.100
144, 29606.96, 8490.44, -187500.02, -187500.02, -187500.02, -187500.02, -187500.02, -187500.02, 0.000, 0.000, 0.000, 02:37:43.101
145, 29618.05, 8504.62, -187500.02, -187500.02, -187500.02, -187500.02, -187500.02, -187500.02, 0.218, 0.990, -0.086, 02:37:43.101
146, 29610.67, 8501.58, -187500.02, -187500.02, -187500.02, -187500.02, -187500.02, -187500.02, 0.000, 0.000, 0.000, 02:37:43.101
147, 29576.81, 8480.34, -187500.02, -187500.02, -187500.02, -187500.02, -187500.02, -187500.02, 0.000, 0.000, 0.000, 02:37:43.101
148, 29581.10, 8472.16, -187500.02, -187500.02, -187500.02, -187500.02, -187500.02, -187500.02, 0.000, 0.000, 0.000, 02:37:43.101
149, 29616.93, 8495.54, -187500.02, -187500.02, -187500.02, -187500.02, -187500.02, -187500.02, 0.000, 0.000, 0.000, 02:37:43.101
150, 29611.99, 8509.04, -187500.02, -187500.02, -187500.02, -187500.02, -187500.02, -187500.02, 0.000, 0.000, 0.000, 02:37:43.101
151, 29581.37, 8489.44, -187500.02, -187500.02, -187500.02, -187500.02, -187500.02, -187500.02, 0.000, 0.000, 0.000, 02:37:43.101
152, 29579.87, 8485.26, -187500.02, -187500.02, -187500.02, -187500.02, -187500.02, -187500.02, 0.000, 0.000, 0.000, 02:37:43.101
153, 29604.79, 8510.23, -187500.02, -187500.02, -187500.02, -187500.02, -187500.02, -187500.02, 0.000, 0.000, 0.000, 02:37:43.102
154, 29611.90, 8509.22, -187500.02, -187500.02, -187500.02, -187500.02, -187500.02, -187500.02, 0.000, 0.000, 0.000, 02:37:43.102
155, 29593.60, 8474.06, -187500.02, -187500.02, -187500.02, -187500.02, -187500.02, -187500.02, 0.214, 0.994, -0.086, 02:37:43.102
