%OpenBCI Raw EEG Data
%
%Sample Rate = 250.0 Hz
%First Column = SampleIndex
%Last Column = Timestamp 
%Other Columns = EEG data in microvolts followed by Accel Data (in G) interleaved with Aux Data
0, 0.00, 0.00, 0.00, 0.00, 0.00, 0.00, 0.00, 0.00, 0.162, 1.008, -0.084, 01:35:12.151
1, -10986.26, -16671.03, -187500.02, -187500.02, -187500.02, -187500.02, -187500.02, -187500.02, 0.000, 0.000, 0.000, 01:35:12.629
2, -10962.61, -16651.91, -187500.02, -187500.02, -187500.02, -187500.02, -187500.02, -187500.02, 0.000, 0.000, 0.000, 01:35:12.629
3, -10949.49, -16641.74, -187500.02, -187500.02, -187500.02, -187500.02, -187500.02, -187500.02, 0.000, 0.000, 0.000, 01:35:12.630
4, -10949.74, -16646.42, -187500.02, -187500.02, -187500.02, -187500.02, -187500.02, -187500.02, 0.000, 0.000, 0.000, 01:35:12.630
5, -10970.46, -16659.96, -187500.02, -187500.02, -187500.02, -187500.02, -187500.02, -187500.02, 0.000, 0.000, 0.000, 01:35:12.630
6, -10953.49, -16648.12, -187500.02, -187500.02, -187500.02, -187500.02, -187500.02, -187500.02, 0.000, 0.000, 0.000, 01:35:12.630
7, -10915.25, -16610.54, -187500.02, -187500.02, -187500.02, -187500.02, -187500.02, -187500.02, 0.160, 1.006, -0.080, 01:35:12.630
8, -10923.81, -16611.01, -187500.02, -187500.02, -187500.02, -187500.02, -187500.02, -187500.02, 0.000, 0.000, 0.000, 01:35:12.630
9, -10974.08, -16664.39, -187500.02, -187500.02, -187500.02, -187500.02, -187500.02, -187500.02, 0.000, 0.000, 0.000, 01:35:12.630
10, -10972.61, -16669.26, -187500.02, -187500.02, -187500.02, -187500.02, -187500.02, -187500.02, 0.000, 0.000, 0.000, 01:35:12.631
11, -10940.26, -16627.37, -187500.02, -187500.02, -187500.02, -187500.02, -187500.02, -187500.02, 0.000, 0.000, 0.000, 01:35:12.631
12, -10944.98, -16635.80, -187500.02, -187500.02, -187500.02, -187500.02, -187500.02, -187500.02, 0.000, 0.000, 0.000, 01:35:12.631
13, -10967.60, -16659.00, -187500.02, -187500.02, -187500.02, -187500.02, -187500.02, -187500.02, 0.000, 0.000, 0.000, 01:35:12.631
14, -10970.73, -16666.96, -187500.02, -187500.02, -187500.02, -187500.02, -187500.02, -187500.02, 0.000, 0.000, 0.000, 01:35:12.631
15, -10933.33, -16633.74, -187500.02, -187500.02, -187500.02, -187500.02, -187500.02, -187500.02, 0.000, 0.000, 0.000, 01:35:12.631
16, -10923.90, -16617.18, -187500.02, -187500.02, -187500.02, -187500.02, -187500.02, -187500.02, 0.000, 0.000, 0.000, 01:35:12.631
17, -10954.48, -16647.62, -187500.02, -187500.02, -187500.02, -187500.02, -187500.02, -187500.02, 0.156, 0.998, -0.080, 01:35:12.631
18, -10977.43, -16675.05, -187500.02, -187500.02, -187500.02, -187500.02, -187500.02, -187500.02, 0.000, 0.000, 0.000, 01:35:12.631
19, -10942.45, -16634.93, -187500.02, -187500.02, -187500.02, -187500.02, -187500.02, -187500.02, 0.000, 0.000, 0.000, 01:35:12.632
20, -10931.48, -16627.48, -187500.02, -187500.02, -187500.02, -187500.02, -187500.02, -187500.02, 0.000, 0.000, 0.000, 01:35:12.632
21, -10938.81, -16627.19, -187500.02, -187500.02, -187500.02, -187500.02, -187500.02, -187500.02, 0.000, 0.000, 0.000, 01:35:12.632
22, -10978.26, -16663.56, -187500.02, -187500.02, -187500.02, -187500.02, -187500.02, -187500.02, 0.000, 0.000, 0.000, 01:35:12.632
23, -10954.41, -16654.13, -187500.02, -187500.02, -187500.02, -187500.02, -187500.02, -187500.02, 0.000, 0.000, 0.000, 01:35:12.632
24, -10916.66, -16622.63, -187500.02, -187500.02, -187500.02, -187500.02, -187500.02, -187500.02, 0.000, 0.000, 0.000, 01:35:12.632
25, -10939.03, -16644.36, -187500.02, -187500.02, -187500.02, -187500.02, -187500.02, -187500.02, 0.000, 0.000, 0.000, 01:35:12.632
26, -10977.50, -16671.43, -187500.02, -187500.02, -187500.02, -187500.02, -187500.02, -187500.02, 0.000, 0.000, 0.000, 01:35:12.632
27, -10947.97, -16644.11, -187500.02, -187500.02, -187500.02, -187500.02, -187500.02, -187500.02, 0.158, 1.002, -0.078, 01:35:12.633
28, -10916.19, -16616.53, -187500.02, -187500.02, -187500.02, -187500.02, -187500.02, -187500.02, 0.000, 0.000, 0.000, 01:35:12.633
29, -10940.20, -16643.38, -187500.02, -187500.02, -187500.02, -187500.02, -187500.02, -187500.02, 0.000, 0.000, 0.000, 01:35:12.633
30, -10971.73, -16679.94, -187500.02, -187500.02, -187500.02, -187500.02, -187500.02, -187500.02, 0.000, 0.000, 0.000, 01:35:12.633
31, -10950.19, -16653.41, -187500.02, -187500.02, -187500.02, -187500.02, -187500.02, -187500.02, 0.000, 0.000, 0.000, 01:35:12.633
32, -10919.25, -16618.46, -187500.02, -187500.02, -187500.02, -187500.02, -187500.02, -187500.02, 0.000, 0.000, 0.000, 01:35:12.633
33, -10925.49, -16622.08, -187500.02, -187500.02, -187500.02, -187500.02, -187500.02, -187500.02, 0.000, 0.000, 0.000, 01:35:12.633
34, -10959.37, -16662.53, -187500.02, -187500.02, -187500.02, -187500.02, -187500.02, -187500.02, 0.000, 0.000, 0.000, 01:35:12.633
35, -10966.12, -16666.91, -187500.02, -187500.02, -187500.02, -187500.02, -187500.02, -187500.02, 0.000, 0.000, 0.000, 01:35:12.633
36, -10922.47, -16619.17, -187500.02, -187500.02, -187500.02, -187500.02, -187500.02, -187500.02, 0.000, 0.000, 0.000, 01:35:12.634
37, -10923.10, -16630.26, -187500.02, -187500.02, -187500.02, -187500.02, -187500.02, -187500.02, 0.158, 1.004, -0.082, 01:35:12.634
38, -10953.65, -16663.13, -187500.02, -187500.02, -187500.02, -187500.02, -187500.02, -187500.02, 0.000, 0.000, 0.000, 01:35:12.634
39, -10956.20, -16662.33, -187500.02, -187500.02, -187500.02, -187500.02, -187500.02, -187500.02, 0.000, 0.000, 0.000, 01:35:12.634
40, -10931.21, -16631.44, -187500.02, -187500.02, -187500.02, -187500.02, -187500.02, -187500.02, 0.000, 0.000, 0.000, 01:35:12.634
41, -10936.35, -16644.25, -187500.02, -187500.02, -187500.02, -187500.02, -187500.02, -187500.02, 0.000, 0.000, 0.000, 01:35:12.634
42, -10967.04, -16654.66, -187500.02, -187500.02, -187500.02, -187500.02, -187500.02, -187500.02, 0.000, 0.000, 0.000, 01:35:12.634
43, -10990.08, -16679.81, -187500.02, -187500.02, -187500.02, -187500.02, -187500.02, -187500.02, 0.000, 0.000, 0.000, 01:35:12.634
44, -10942.09, -16648.29, -187500.02, -187500.02, -187500.02, -187500.02, -187500.02, -187500.02, 0.000, 0.000, 0.000, 01:35:12.634
45, -10934.41, -16640.70, -187500.02, -187500.02, -187500.02, -187500.02, -187500.02, -187500.02, 0.000, 0.000, 0.000, 01:35:12.635
46, -10932.55, -16645.81, -187500.02, -187500.02, -187500.02, -187500.02, -187500.02, -187500.02, 0.000, 0.000, 0.000, 01:35:12.635
47, -10966.68, -16674.85, -187500.02, -187500.02, -187500.02, -187500.02, -187500.02, -187500.02, 0.158, 1.002, -0.082, 01:35:12.635
48, -10938.16, -16642.50, -187500.02, -187500.02, -187500.02, -187500.02, -187500.02, -187500.02, 0.000, 0.000, 0.000, 01:35:12.635
49, -10917.80, -16617.76, -187500.02, -187500.02, -187500.02, -187500.02, -187500.02, -187500.02, 0.000, 0.000, 0.000, 01:35:12.635
50, -10932.15, -16632.87, -187500.02, -187500.02, -187500.02, -187500.02, -187500.02, -187500.02, 0.000, 0.000, 0.000, 01:35:12.635
51, -10970.79, -16676.50, -187500.02, -187500.02, -187500.02, -187500.02, -187500.02, -187500.02, 0.000, 0.000, 0.000, 01:35:12.635
52, -10952.31, -16652.56, -187500.02, -187500.02, -187500.02, -187500.02, -187500.02, -187500.02, 0.000, 0.000, 0.000, 01:35:12.636
53, -10939.52, -16632.54, -187500.02, -187500.02, -187500.02, -187500.02, -187500.02, -187500.02, 0.000, 0.000, 0.000, 01:35:12.636
54, -10962.61, -16656.54, -187500.02, -187500.02, -187500.02, -187500.02, -187500.02, -187500.02, 0.000, 0.000, 0.000, 01:35:12.636
55, -10989.21, -16687.88, -187500.02, -187500.02, -187500.02, -187500.02, -187500.02, -187500.02, 0.000, 0.000, 0.000, 01:35:12.636
56, -10981.32, -16675.61, -187500.02, -187500.02, -187500.02, -187500.02, -187500.02, -187500.02, 0.000, 0.000, 0.000, 01:35:12.636
57, -10942.27, -16637.12, -187500.02, -187500.02, -187500.02, -187500.02, -187500.02, -187500.02, 0.152, 1.002, -0.080, 01:35:12.636
58, -10950.12, -16652.09, -187500.02, -187500.02, -187500.02, -187500.02, -187500.02, -187500.02, 0.000, 0.000, 0.000, 01:35:12.636
59, -10991.78, -16688.59, -187500.02, -187500.02, -187500.02, -187500.02, -187500.02, -187500.02, 0.000, 0.000, 0.000, 01:35:12.636
60, -11003.41, -16705.34, -187500.02, -187500.02, -187500.02, -187500.02, -187500.02, -187500.02, 0.000, 0.000, 0.000, 01:35:12.636
61, -10945.16, -16639.22, -187500.02, -187500.02, -187500.02, -187500.02, -187500.02, -187500.02, 0.000, 0.000, 0.000, 01:35:12.636
62, -10940.28, -16638.93, -187500.02, -187500.02, -187500.02, -187500.02, -187500.02, -187500.02, 0.000, 0.000, 0.000, 01:35:12.644
63, -10965.23, -16668.34, -187500.02, -187500.02, -187500.02, -187500.02, -187500.02, -187500.02, 0.000, 0.000, 0.000, 01:35:12.644
64, -10986.49, -16676.23, -187500.02, -187500.02, -187500.02, -187500.02, -187500.02, -187500.02, 0.000, 0.000, 0.000, 01:35:12.644
65, -10954.57, -16650.02, -187500.02, -187500.02, -187500.02, -187500.02, -187500.02, -187500.02, 0.000, 0.000, 0.000, 01:35:12.644
66, -10944.91, -16643.96, -187500.02, -187500.02, -187500.02, -187500.02, -187500.02, -187500.02, 0.000, 0.000, 0.000, 01:35:12.644
67, -10961.21, -16659.04, -187500.02, -187500.02, -187500.02, -187500.02, -187500.02, -187500.02, 0.154, 1.004, -0.084, 01:35:12.645
68, -10997.55, -16685.67, -187500.02, -187500.02, -187500.02, -187500.02, -187500.02, -187500.02, 0.000, 0.000, 0.000, 01:35:12.645
69, -10949.99, -16651.56, -187500.02, -187500.02, -187500.02, -187500.02, -187500.02, -187500.02, 0.000, 0.000, 0.000, 01:35:12.645
70, -10937.24, -16637.81, -187500.02, -187500.02, -187500.02, -187500.02, -187500.02, -187500.02, 0.000, 0.000, 0.000, 01:35:12.645
71, -10958.52, -16656.34, -187500.02, -187500.02, -187500.02, -187500.02, -187500.02, -187500.02, 0.000, 0.000, 0.000, 01:35:12.645
72, -10992.16, -16702.47, -187500.02, -187500.02, -187500.02, -187500.02, -187500.02, -187500.02, 0.000, 0.000, 0.000, 01:35:12.645
73, -10957.47, -16662.04, -187500.02, -187500.02, -187500.02, -187500.02, -187500.02, -187500.02, 0.000, 0.000, 0.000, 01:35:12.646
74, -10934.65, -16638.97, -187500.02, -187500.02, -187500.02, -187500.02, -187500.02, -187500.02, 0.000, 0.000, 0.000, 01:35:12.646
75, -10949.36, -16657.32, -187500.02, -187500.02, -187500.02, -187500.02, -187500.02, -187500.02, 0.000, 0.000, 0.000, 01:35:12.646
76, -10987.20, -16696.87, -187500.02, -187500.02, -187500.02, -187500.02, -187500.02, -187500.02, 0.156, 1.002, -0.084, 01:35:12.646
77, -10974.73, -16691.70, -187500.02, -187500.02, -187500.02, -187500.02, -187500.02, -187500.02, 0.000, 0.000, 0.000, 01:35:12.646
78, -10947.19, -16660.72, -187500.02, -187500.02, -187500.02, -187500.02, -187500.02, -187500.02, 0.000, 0.000, 0.000, 01:35:12.646
79, -10952.29, -16648.74, -187500.02, -187500.02, -187500.02, -187500.02, -187500.02, -187500.02, 0.000, 0.000, 0.000, 01:35:12.646
80, -10996.21, -16698.27, -187500.02, -187500.02, -187500.02, -187500.02, -187500.02, -187500.02, 0.000, 0.000, 0.000, 01:35:12.647
81, -10993.50, -16689.87, -187500.02, -187500.02, -187500.02, -187500.02, -187500.02, -187500.02, 0.000, 0.000, 0.000, 01:35:12.647
82, -10944.11, -16637.39, -187500.02, -187500.02, -187500.02, -187500.02, -187500.02, -187500.02, 0.000, 0.000, 0.000, 01:35:12.647
83, -10926.99, -16624.45, -187500.02, -187500.02, -187500.02, -187500.02, -187500.02, -187500.02, 0.000, 0.000, 0.000, 01:35:12.647
84, -10964.13, -16663.52, -187500.02, -187500.02, -187500.02, -187500.02, -187500.02, -187500.02, 0.000, 0.000, 0.000, 01:35:12.647
85, -10985.95, -16687.03, -187500.02, -187500.02, -187500.02, -187500.02, -187500.02, -187500.02, 0.000, 0.000, 0.000, 01:35:12.647
86, -10934.23, -16647.91, -187500.02, -187500.02, -187500.02, -187500.02, -187500.02, -187500.02, 0.156, 1.002, -0.076, 01:35:12.647
87, -10939.19, -16647.49, -187500.02, -187500.02, -187500.02, -187500.02, -187500.02, -187500.02, 0.000, 0.000, 0.000, 01:35:12.647
88, -10960.09, -16660.95, -187500.02, -187500.02, -187500.02, -187500.02, -187500.02, -187500.02, 0.000, 0.000, 0.000, 01:35:12.647
89, -10979.85, -16693.71, -187500.02, -187500.02, -187500.02, -187500.02, -187500.02, -187500.02, 0.000, 0.000, 0.000, 01:35:12.648
90, -10939.77, -16659.67, -187500.02, -187500.02, -187500.02, -187500.02, -187500.02, -187500.02, 0.000, 0.000, 0.000, 01:35:12.648
91, -10925.11, -16633.52, -187500.02, -187500.02, -187500.02, -187500.02, -187500.02, -187500.02, 0.000, 0.000, 0.000, 01:35:12.648
92, -10945.60, -16651.76, -187500.02, -187500.02, -187500.02, -187500.02, -187500.02, -187500.02, 0.000, 0.000, 0.000, 01:35:12.648
93, -10971.69, -16680.55, -187500.02, -187500.02, -187500.02, -187500.02, -187500.02, -187500.02, 0.000, 0.000, 0.000, 01:35:12.648
94, -10928.75, -16643.98, -187500.02, -187500.02, -187500.02, -187500.02, -187500.02, -187500.02, 0.000, 0.000, 0.000, 01:35:12.648
95, -10916.17, -16635.33, -187500.02, -187500.02, -187500.02, -187500.02, -187500.02, -187500.02, 0.000, 0.000, 0.000, 01:35:12.648
96, -10922.27, -16621.54, -187500.02, -187500.02, -187500.02, -187500.02, -187500.02, -187500.02, 0.160, 1.002, -0.080, 01:35:12.648
97, -10969.63, -16673.66, -187500.02, -187500.02, -187500.02, -187500.02, -187500.02, -187500.02, 0.000, 0.000, 0.000, 01:35:12.648
98, -10939.52, -16665.55, -187500.02, -187500.02, -187500.02, -187500.02, -187500.02, -187500.02, 0.000, 0.000, 0.000, 01:35:12.648
99, -10916.01, -16649.77, -187500.02, -187500.02, -187500.02, -187500.02, -187500.02, -187500.02, 0.000, 0.000, 0.000, 01:35:12.649
100, -10930.99, -16631.06, -187500.02, -187500.02, -187500.02, -187500.02, -187500.02, -187500.02, 0.000, 0.000, 0.000, 01:35:12.649
101, -10989.44, -16681.78, -187500.02, -187500.02, -187500.02, -187500.02, -187500.02, -187500.02, 0.000, 0.000, 0.000, 01:35:12.649
102, -10972.63, -16675.99, -187500.02, -187500.02, -187500.02, -187500.02, -187500.02, -187500.02, 0.000, 0.000, 0.000, 01:35:12.649
103, -10923.41, -16632.36, -187500.02, -187500.02, -187500.02, -187500.02, -187500.02, -187500.02, 0.000, 0.000, 0.000, 01:35:12.649
104, -10922.67, -16632.63, -187500.02, -187500.02, -187500.02, -187500.02, -187500.02, -187500.02, 0.000, 0.000, 0.000, 01:35:12.649
105, -10955.06, -16660.23, -187500.02, -187500.02, -187500.02, -187500.02, -187500.02, -187500.02, 0.000, 0.000, 0.000, 01:35:12.649
106, -10966.17, -16674.83, -187500.02, -187500.02, -187500.02, -187500.02, -187500.02, -187500.02, 0.158, 1.002, -0.082, 01:35:12.649
107, -10923.50, -16636.04, -187500.02, -187500.02, -187500.02, -187500.02, -187500.02, -187500.02, 0.000, 0.000, 0.000, 01:35:12.649
108, -10919.65, -16631.51, -187500.02, -187500.02, -187500.02, -187500.02, -187500.02, -187500.02, 0.000, 0.000, 0.000, 01:35:12.650
109, -10953.96, -16669.64, -187500.02, -187500.02, -187500.02, -187500.02, -187500.02, -187500.02, 0.000, 0.000, 0.000, 01:35:12.650
110, -10962.93, -16684.06, -187500.02, -187500.02, -187500.02, -187500.02, -187500.02, -187500.02, 0.000, 0.000, 0.000, 01:35:12.650
111, -10933.04, -16650.08, -187500.02, -187500.02, -187500.02, -187500.02, -187500.02, -187500.02, 0.000, 0.000, 0.000, 01:35:12.650
112, -10945.09, -16656.05, -187500.02, -187500.02, -187500.02, -187500.02, -187500.02, -187500.02, 0.000, 0.000, 0.000, 01:35:12.650
113, -10964.18, -16665.28, -187500.02, -187500.02, -187500.02, -187500.02, -187500.02, -187500.02, 0.000, 0.000, 0.000, 01:35:12.650
114, -10967.82, -16678.49, -187500.02, -187500.02, -187500.02, -187500.02, -187500.02, -187500.02, 0.000, 0.000, 0.000, 01:35:12.650
115, -10913.71, -16632.92, -187500.02, -187500.02, -187500.02, -187500.02, -187500.02, -187500.02, 0.000, 0.000, 0.000, 01:35:12.650
116, -10895.56, -16613.02, -187500.02, -187500.02, -187500.02, -187500.02, -187500.02, -187500.02, 0.152, 1.002, -0.082, 01:35:12.650
117, -10924.62, -16637.68, -187500.02, -187500.02, -187500.02, -187500.02, -187500.02, -187500.02, 0.000, 0.000, 0.000, 01:35:12.651
118, -10952.60, -16675.27, -187500.02, -187500.02, -187500.02, -187500.02, -187500.02, -187500.02, 0.000, 0.000, 0.000, 01:35:12.651
119, -10925.55, -16650.24, -187500.02, -187500.02, -187500.02, -187500.02, -187500.02, -187500.02, 0.000, 0.000, 0.000, 01:35:12.651
120, -10906.44, -16630.93, -187500.02, -187500.02, -187500.02, -187500.02, -187500.02, -187500.02, 0.000, 0.000, 0.000, 01:35:12.651
121, -10909.48, -16632.78, -187500.02, -187500.02, -187500.02, -187500.02, -187500.02, -187500.02, 0.000, 0.000, 0.000, 01:35:13.109
122, -10949.20, -16665.04, -187500.02, -187500.02, -187500.02, -187500.02, -187500.02, -187500.02, 0.000, 0.000, 0.000, 01:35:13.109
123, -10934.18, -16648.21, -187500.02, -187500.02, -187500.02, -187500.02, -187500.02, -187500.02, 0.000, 0.000, 0.000, 01:35:13.110
124, -10891.71, -16602.25, -187500.02, -187500.02, -187500.02, -187500.02, -187500.02, -187500.02, 0.000, 0.000, 0.000, 01:35:13.110
125, -10908.92, -16613.63, -187500.02, -187500.02, -187500.02, -187500.02, -187500.02, -187500.02, 0.000, 0.000, 0.000, 01:35:13.110
126, -10944.89, -16650.87, -187500.02, -187500.02, -187500.02, -187500.02, -187500.02, -187500.02, 0.158, 1.006, -0.084, 01:35:13.110
127, -10935.90, -16653.14, -187500.02, -187500.02, -187500.02, -187500.02, -187500.02, -187500.02, 0.000, 0.000, 0.000, 01:35:13.110
128, -10901.59, -16620.62, -187500.02, -187500.02, -187500.02, -187500.02, -187500.02, -187500.02, 0.000, 0.000, 0.000, 01:35:13.110
129, -10907.99, -16615.04, -187500.02, -187500.02, -187500.02, -187500.02, -187500.02, -187500.02, 0.000, 0.000, 0.000, 01:35:13.110
130, -10948.11, -16656.41, -187500.02, -187500.02, -187500.02, -187500.02, -187500.02, -187500.02, 0.000, 0.000, 0.000, 01:35:13.111
131, -10943.37, -16657.35, -187500.02, -187500.02, -187500.02, -187500.02, -187500.02, -187500.02, 0.000, 0.000, 0.000, 01:35:13.111
132, -10900.10, -16609.80, -187500.02, -187500.02, -187500.02, -187500.02, -187500.02, -187500.02, 0.000, 0.000, 0.000, 01:35:13.111
133, -10899.92, -16605.76, -187500.02, -187500.02, -187500.02, -187500.02, -187500.02, -187500.02, 0.000, 0.000, 0.000, 01:35:13.111
134, -10928.30, -16632.40, -187500.02, -187500.02, -187500.02, -187500.02, -187500.02, -187500.02, 0.000, 0.000, 0.000, 01:35:13.111
135, -10945.31, -16648.85, -187500.02, -187500.02, -187500.02, -187500.02, -187500.02, -187500.02, 0.160, 1.002, -0.080, 01:35:13.111
136, -10907.03, -16627.37, -187500.02, -187500.02, -187500.02, -187500.02, -187500.02, -187500.02, 0.000, 0.000, 0.000, 01:35:13.112
137, -10895.71, -16609.02, -187500.02, -187500.02, -187500.02, -187500.02, -187500.02, -187500.02, 0.000, 0.000, 0.000, 01:35:13.112
138, -10918.67, -16620.80, -187500.02, -187500.02, -187500.02, -187500.02, -187500.02, -187500.02, 0.000, 0.000, 0.000, 01:35:13.112
139, -10947.17, -16649.10, -187500.02, -187500.02, -187500.02, -187500.02, -187500.02, -187500.02, 0.000, 0.000, 0.000, 01:35:13.112
140, -10905.26, -16613.47, -187500.02, -187500.02, -187500.02, -187500.02, -187500.02, -187500.02, 0.000, 0.000, 0.000, 01:35:13.112
141, -10890.98, -16598.32, -187500.02, -187500.02, -187500.02, -187500.02, -187500.02, -187500.02, 0.000, 0.000, 0.000, 01:35:13.112
142, -10923.12, -16622.86, -187500.02, -187500.02, -187500.02, -187500.02, -187500.02, -187500.02, 0.000, 0.000, 0.000, 01:35:13.113
143, -10963.40, -16649.14, -187500.02, -187500.02, -187500.02, -187500.02, -187500.02, -187500.02, 0.000, 0.000, 0.000, 01:35:13.113
144, -10933.00, -16636.87, -187500.02, -187500.02, -187500.02, -187500.02, -187500.02, -187500.02, 0.000, 0.000, 0.000, 01:35:13.113
145, -10904.95, -16605.20, -187500.02, -187500.02, -187500.02, -187500.02, -187500.02, -187500.02, 0.158, 1.002, -0.078, 01:35:13.113
146, -10921.75, -16617.27, -187500.02, -187500.02, -187500.02, -187500.02, -187500.02, -187500.02, 0.000, 0.000, 0.000, 01:35:13.113
147, -10958.46, -16642.13, -187500.02, -187500.02, -187500.02, -187500.02, -187500.02, -187500.02, 0.000, 0.000, 0.000, 01:35:13.113
148, -10947.64, -16630.14, -187500.02, -187500.02, -187500.02, -187500.02, -187500.02, -187500.02, 0.000, 0.000, 0.000, 01:35:13.114
149, -10905.04, -16592.50, -187500.02, -187500.02, -187500.02, -187500.02, -187500.02, -187500.02, 0.000, 0.000, 0.000, 01:35:13.114
150, -10924.30, -16615.32, -187500.02, -187500.02, -187500.02, -187500.02, -187500.02, -187500.02, 0.000, 0.000, 0.000, 01:35:13.114
151, -10962.57, -16641.21, -187500.02, -187500.02, -187500.02, -187500.02, -187500.02, -187500.02, 0.000, 0.000, 0.000, 01:35:13.114
152, -10951.55, -16636.56, -187500.02, -187500.02, -187500.02, -187500.02, -187500.02, -187500.02, 0.000, 0.000, 0.000, 01:35:13.114
153, -10931.03, -16612.62, -187500.02, -187500.02, -187500.02, -187500.02, -187500.02, -187500.02, 0.000, 0.000, 0.000, 01:35:13.114
154, -10928.01, -16619.62, -187500.02, -187500.02, -187500.02, -187500.02, -187500.02, -187500.02, 0.000, 0.000, 0.000, 01:35:13.114
155, -10943.86, -16636.04, -187500.02, -187500.02, -187500.02, -187500.02, -187500.02, -187500.02, 0.160, 1.006, -0.082, 01:35:13.115
156, -10954.39, -16641.03, -187500.02, -187500.02, -187500.02, -187500.02, -187500.02, -187500.02, 0.000, 0.000, 0.000, 01:35:13.115
157, -10921.46, -16613.85, -187500.02, -187500.02, -187500.02, -187500.02, -187500.02, -187500.02, 0.000, 0.000, 0.000, 01:35:13.115
158, -10919.01, -16609.16, -187500.02, -187500.02, -187500.02, -187500.02, -187500.02, -187500.02, 0.000, 0.000, 0.000, 01:35:13.115
159, -10954.21, -16631.57, -187500.02, -187500.02, -187500.02, -187500.02, -187500.02, -187500.02, 0.000, 0.000, 0.000, 01:35:13.115
160, -10969.57, -16651.54, -187500.02, -187500.02, -187500.02, -187500.02, -187500.02, -187500.02, 0.000, 0.000, 0.000, 01:35:13.115
161, -10915.56, -16599.88, -187500.02, -187500.02, -187500.02, -187500.02, -187500.02, -187500.02, 0.000, 0.000, 0.000, 01:35:13.115
162, -10905.35, -16570.78, -187500.02, -187500.02, -187500.02, -187500.02, -187500.02, -187500.02, 0.000, 0.000, 0.000, 01:35:13.115
163, -10925.98, -16610.05, -187500.02, -187500.02, -187500.02, -187500.02, -187500.02, -187500.02, 0.000, 0.000, 0.000, 01:35:13.115
164, -10967.49, -16650.78, -187500.02, -187500.02, -187500.02, -187500.02, -187500.02, -187500.02, 0.000, 0.000, 0.000, 01:35:13.115
165, -10931.59, -16608.66, -187500.02, -187500.02, -187500.02, -187500.02, -187500.02, -187500.02, 0.156, 1.004, -0.074, 01:35:13.116
166, -10919.83, -16603.12, -187500.02, -187500.02, -187500.02, -187500.02, -187500.02, -187500.02, 0.000, 0.000, 0.000, 01:35:13.116
167, -10932.57, -16620.55, -187500.02, -187500.02, -187500.02, -187500.02, -187500.02, -187500.02, 0.000, 0.000, 0.000, 01:35:13.116
168, -10962.97, -16646.01, -187500.02, -187500.02, -187500.02, -187500.02, -187500.02, -187500.02, 0.000, 0.000, 0.000, 01:35:13.116
169, -10934.67, -16618.54, -187500.02, -187500.02, -187500.02, -187500.02, -187500.02, -187500.02, 0.000, 0.000, 0.000, 01:35:13.116
170, -10896.05, -16586.13, -187500.02, -187500.02, -187500.02, -187500.02, -187500.02, -187500.02, 0.000, 0.000, 0.000, 01:35:13.116
171, -10915.88, -16597.91, -187500.02, -187500.02, -187500.02, -187500.02, -187500.02, -187500.02, 0.000, 0.000, 0.000, 01:35:13.116
172, -10962.93, -16647.04, -187500.02, -187500.02, -187500.02, -187500.02, -187500.02, -187500.02, 0.000, 0.000, 0.000, 01:35:13.116
173, -10942.85, -16630.64, -187500.02, -187500.02, -187500.02, -187500.02, -187500.02, -187500.02, 0.000, 0.000, 0.000, 01:35:13.117
174, -10908.12, -16604.39, -187500.02, -187500.02, -187500.02, -187500.02, -187500.02, -187500.02, 0.000, 0.000, 0.000, 01:35:13.117
175, -10908.34, -16613.56, -187500.02, -187500.02, -187500.02, -187500.02, -187500.02, -187500.02, 0.156, 1.002, -0.074, 01:35:13.117
176, -10967.82, -16666.00, -187500.02, -187500.02, -187500.02, -187500.02, -187500.02, -187500.02, 0.000, 0.000, 0.000, 01:35:13.117
177, -10965.32, -16661.24, -187500.02, -187500.02, -187500.02, -187500.02, -187500.02, -187500.02, 0.000, 0.000, 0.000, 01:35:13.117
178, -10911.25, -16599.61, -187500.02, -187500.02, -187500.02, -187500.02, -187500.02, -187500.02, 0.000, 0.000, 0.000, 01:35:13.117
179, -10909.24, -16600.73, -187500.02, -187500.02, -187500.02, -187500.02, -187500.02, -187500.02, 0.000, 0.000, 0.000, 01:35:13.117
180, -10939.66, -16622.43, -187500.02, -187500.02, -187500.02, -187500.02, -187500.02, -187500.02, 0.000, 0.000, 0.000, 01:35:13.117
181, -10946.39, -16630.01, -187500.02, -187500.02, -187500.02, -187500.02, -187500.02, -187500.02, 0.000, 0.000, 0.000, 01:35:13.118
182, -10911.47, -16595.66, -187500.02, -187500.02, -187500.02, -187500.02, -187500.02, -187500.02, 0.000, 0.000, 0.000, 01:35:13.118
183, -10910.91, -16608.11, -187500.02, -187500.02, -187500.02, -187500.02, -187500.02, -187500.02, 0.000, 0.000, 0.000, 01:35:13.118
184, -10937.74, -16637.16, -187500.02, -187500.02, -187500.02, -187500.02, -187500.02, -187500.02, 0.000, 0.000, 0.000, 01:35:13.118
185, -10953.52, -16638.15, -187500.02, -187500.02, -187500.02, -187500.02, -187500.02, -187500.02, 0.158, 1.000, -0.082, 01:35:13.118
186, -10900.27, -16597.20, -187500.02, -187500.02, -187500.02, -187500.02, -187500.02, -187500.02, 0.000, 0.000, 0.000, 01:35:13.118
187, -10877.66, -16579.32, -187500.02, -187500.02, -187500.02, -187500.02, -187500.02, -187500.02, 0.000, 0.000, 0.000, 01:35:13.118
188, -10912.30, -16607.46, -187500.02, -187500.02, -187500.02, -187500.02, -187500.02, -187500.02, 0.000, 0.000, 0.000, 01:35:13.118
189, -10951.97, -16646.73, -187500.02, -187500.02, -187500.02, -187500.02, -187500.02, -187500.02, 0.000, 0.000, 0.000, 01:35:13.119
190, -10913.31, -16603.41, -187500.02, -187500.02, -187500.02, -187500.02, -187500.02, -187500.02, 0.000, 0.000, 0.000, 01:35:13.119
191, -10897.10, -16583.18, -187500.02, -187500.02, -187500.02, -187500.02, -187500.02, -187500.02, 0.000, 0.000, 0.000, 01:35:13.119
192, -10922.47, -16611.53, -187500.02, -187500.02, -187500.02, -187500.02, -187500.02, -187500.02, 0.000, 0.000, 0.000, 01:35:13.119
193, -10950.99, -16643.00, -187500.02, -187500.02, -187500.02, -187500.02, -187500.02, -187500.02, 0.000, 0.000, 0.000, 01:35:13.119
194, -10929.69, -16635.93, -187500.02, -187500.02, -187500.02, -187500.02, -187500.02, -187500.02, 0.160, 1.004, -0.080, 01:35:13.119
195, -10899.65, -16610.10, -187500.02, -187500.02, -187500.02, -187500.02, -187500.02, -187500.02, 0.000, 0.000, 0.000, 01:35:13.119
196, -10903.69, -16602.27, -187500.02, -187500.02, -187500.02, -187500.02, -187500.02, -187500.02, 0.000, 0.000, 0.000, 01:35:13.119
197, -10943.55, -16632.33, -187500.02, -187500.02, -187500.02, -187500.02, -187500.02, -187500.02, 0.000, 0.000, 0.000, 01:35:13.119
198, -10921.60, -16613.54, -187500.02, -187500.02, -187500.02, -187500.02, -187500.02, -187500.02, 0.000, 0.000, 0.000, 01:35:13.120
199, -10890.02, -16581.39, -187500.02, -187500.02, -187500.02, -187500.02, -187500.02, -187500.02, 0.000, 0.000, 0.000, 01:35:13.120
200, -10897.84, -16599.05, -187500.02, -187500.02, -187500.02, -187500.02, -187500.02, -187500.02, 0.000, 0.000, 0.000, 01:35:13.120
201, -10937.27, -16646.95, -187500.02, -187500.02, -187500.02, -187500.02, -187500.02, -187500.02, 0.000, 0.000, 0.000, 01:35:13.120
202, -10936.17, -16627.51, -187500.02, -187500.02, -187500.02, -187500.02, -187500.02, -187500.02, 0.000, 0.000, 0.000, 01:35:13.120
203, -10897.97, -16584.93, -187500.02, -187500.02, -187500.02, -187500.02, -187500.02, -187500.02, 0.000, 0.000, 0.000, 01:35:13.120
204, -10898.91, -16585.53, -187500.02, -187500.02, -187500.02, -187500.02, -187500.02, -187500.02, 0.166, 1.002, -0.084, 01:35:13.120
205, -10937.42, -16630.30, -187500.02, -187500.02, -187500.02, -187500.02, -187500.02, -187500.02, 0.000, 0.000, 0.000, 01:35:13.120
206, -10960.54, -16647.94, -187500.02, -187500.02, -187500.02, -187500.02, -187500.02, -187500.02, 0.000, 0.000, 0.000, 01:35:13.121
207, -10915.25, -16596.97, -187500.02, -187500.02, -187500.02, -187500.02, -187500.02, -187500.02, 0.000, 0.000, 0.000, 01:35:13.121
208, -10900.39, -16583.03, -187500.02, -187500.02, -187500.02, -187500.02, -187500.02, -187500.02, 0.000, 0.000, 0.000, 01:35:13.121
209, -10935.19, -16624.94, -187500.02, -187500.02, -187500.02, -187500.02, -187500.02, -187500.02, 0.000, 0.000, 0.000, 01:35:13.121
210, -10948.71, -16639.67, -187500.02, -187500.02, -187500.02, -187500.02, -187500.02, -187500.02, 0.000, 0.000, 0.000, 01:35:13.121
211, -10917.64, -16610.30, -187500.02, -187500.02, -187500.02, -187500.02, -187500.02, -187500.02, 0.000, 0.000, 0.000, 01:35:13.121
212, -10896.63, -16599.12, -187500.02, -187500.02, -187500.02, -187500.02, -187500.02, -187500.02, 0.000, 0.000, 0.000, 01:35:13.121
213, -10925.31, -16614.41, -187500.02, -187500.02, -187500.02, -187500.02, -187500.02, -187500.02, 0.000, 0.000, 0.000, 01:35:13.121
214, -10958.46, -16647.29, -187500.02, -187500.02, -187500.02, -187500.02, -187500.02, -187500.02, 0.166, 0.998, -0.082, 01:35:13.122
215, -10910.31, -16602.63, -187500.02, -187500.02, -187500.02, -187500.02, -187500.02, -187500.02, 0.000, 0.000, 0.000, 01:35:13.122
216, -10900.16, -16576.41, -187500.02, -187500.02, -187500.02, -187500.02, -187500.02, -187500.02, 0.000, 0.000, 0.000, 01:35:13.122
217, -10939.28, -16612.42, -187500.02, -187500.02, -187500.02, -187500.02, -187500.02, -187500.02, 0.000, 0.000, 0.000, 01:35:13.122
218, -10968.27, -16647.29, -187500.02, -187500.02, -187500.02, -187500.02, -187500.02, -187500.02, 0.000, 0.000, 0.000, 01:35:13.122
219, -10931.99, -16619.77, -187500.02, -187500.02, -187500.02, -187500.02, -187500.02, -187500.02, 0.000, 0.000, 0.000, 01:35:13.122
220, -10912.23, -16596.53, -187500.02, -187500.02, -187500.02, -187500.02, -187500.02, -187500.02, 0.000, 0.000, 0.000, 01:35:13.122
221, -10919.65, -16609.51, -187500.02, -187500.02, -187500.02, -187500.02, -187500.02, -187500.02, 0.000, 0.000, 0.000, 01:35:13.123
222, -10968.25, -16657.01, -187500.02, -187500.02, -187500.02, -187500.02, -187500.02, -187500.02, 0.000, 0.000, 0.000, 01:35:13.123
223, -10952.82, -16636.09, -187500.02, -187500.02, -187500.02, -187500.02, -187500.02, -187500.02, 0.000, 0.000, 0.000, 01:35:13.123
224, -10910.60, -16605.47, -187500.02, -187500.02, -187500.02, -187500.02, -187500.02, -187500.02, 0.160, 1.004, -0.084, 01:35:13.123
225, -10920.41, -16611.57, -187500.02, -187500.02, -187500.02, -187500.02, -187500.02, -187500.02, 0.000, 0.000, 0.000, 01:35:13.123
226, -10955.62, -16630.30, -187500.02, -187500.02, -187500.02, -187500.02, -187500.02, -187500.02, 0.000, 0.000, 0.000, 01:35:13.123
227, -10959.89, -16638.84, -187500.02, -187500.02, -187500.02, -187500.02, -187500.02, -187500.02, 0.000, 0.000, 0.000, 01:35:13.123
228, -10908.63, -16591.79, -187500.02, -187500.02, -187500.02, -187500.02, -187500.02, -187500.02, 0.000, 0.000, 0.000, 01:35:13.123
229, -10914.60, -16595.37, -187500.02, -187500.02, -187500.02, -187500.02, -187500.02, -187500.02, 0.000, 0.000, 0.000, 01:35:13.124
230, -10950.14, -16643.58, -187500.02, -187500.02, -187500.02, -187500.02, -187500.02, -187500.02, 0.000, 0.000, 0.000, 01:35:13.124
231, -10968.27, -16665.84, -187500.02, -187500.02, -187500.02, -187500.02, -187500.02, -187500.02, 0.000, 0.000, 0.000, 01:35:13.124
232, -10914.45, -16606.68, -187500.02, -187500.02, -187500.02, -187500.02, -187500.02, -187500.02, 0.000, 0.000, 0.000, 01:35:13.124
233, -10913.78, -16604.24, -187500.02, -187500.02, -187500.02, -187500.02, -187500.02, -187500.02, 0.000, 0.000, 0.000, 01:35:13.124
234, -10951.64, -16640.49, -187500.02, -187500.02, -187500.02, -187500.02, -187500.02, -187500.02, 0.158, 1.004, -0.086, 01:35:13.124
235, -10971.06, -16662.49, -187500.02, -187500.02, -187500.02, -187500.02, -187500.02, -187500.02, 0.000, 0.000, 0.000, 01:35:13.124
236, -10928.68, -16614.48, -187500.02, -187500.02, -187500.02, -187500.02, -187500.02, -187500.02, 0.000, 0.000, 0.000, 01:35:13.125
237, -10910.60, -16594.29, -187500.02, -187500.02, -187500.02, -187500.02, -187500.02, -187500.02, 0.000, 0.000, 0.000, 01:35:13.125
238, -10939.03, -16625.92, -187500.02, -187500.02, -187500.02, -187500.02, -187500.02, -187500.02, 0.000, 0.000, 0.000, 01:35:13.125
239, -10972.16, -16670.67, -187500.02, -187500.02, -187500.02, -187500.02, -187500.02, -187500.02, 0.000, 0.000, 0.000, 01:35:13.125
240, -10937.92, -16638.59, -187500.02, -187500.02, -187500.02, -187500.02, -187500.02, -187500.02, 0.000, 0.000, 0.000, 01:35:13.125
241, -10923.74, -16615.64, -187500.02, -187500.02, -187500.02, -187500.02, -187500.02, -187500.02, 0.000, 0.000, 0.000, 01:35:13.589
242, -10928.13, -16613.47, -187500.02, -187500.02, -187500.02, -187500.02, -187500.02, -187500.02, 0.000, 0.000, 0.000, 01:35:13.589
243, -10979.00, -16660.99, -187500.02, -187500.02, -187500.02, -187500.02, -187500.02, -187500.02, 0.000, 0.000, 0.000, 01:35:13.589
244, -10937.29, -16641.37, -187500.02, -187500.02, -187500.02, -187500.02, -187500.02, -187500.02, 0.160, 0.998, -0.084, 01:35:13.589
245, -10911.70, -16608.66, -187500.02, -187500.02, -187500.02, -187500.02, -187500.02, -187500.02, 0.000, 0.000, 0.000, 01:35:13.590
246, -10929.51, -16609.69, -187500.02, -187500.02, -187500.02, -187500.02, -187500.02, -187500.02, 0.000, 0.000, 0.000, 01:35:13.590
247, -10970.10, -16656.03, -187500.02, -187500.02, -187500.02, -187500.02, -187500.02, -187500.02, 0.000, 0.000, 0.000, 01:35:13.590
248, -10950.61, -16646.82, -187500.02, -187500.02, -187500.02, -187500.02, -187500.02, -187500.02, 0.000, 0.000, 0.000, 01:35:13.590
249, -10912.84, -16610.63, -187500.02, -187500.02, -187500.02, -187500.02, -187500.02, -187500.02, 0.000, 0.000, 0.000, 01:35:13.590
250, -10927.97, -16610.72, -187500.02, -187500.02, -187500.02, -187500.02, -187500.02, -187500.02, 0.000, 0.000, 0.000, 01:35:13.590
251, -10960.60, -16638.30, -187500.02, -187500.02, -187500.02, -187500.02, -187500.02, -187500.02, 0.000, 0.000, 0.000, 01:35:13.590
252, -10966.64, -16650.04, -187500.02, -187500.02, -187500.02, -187500.02, -187500.02, -187500.02, 0.000, 0.000, 0.000, 01:35:13.590
253, -10916.30, -16605.13, -187500.02, -187500.02, -187500.02, -187500.02, -187500.02, -187500.02, 0.000, 0.000, 0.000, 01:35:13.591
254, -10919.03, -16612.51, -187500.02, -187500.02, -187500.02, -187500.02, -187500.02, -187500.02, 0.156, 1.000, -0.082, 01:35:13.591
255, -10950.23, -16634.66, -187500.02, -187500.02, -187500.02, -187500.02, -187500.02, -187500.02, 0.000, 0.000, 0.000, 01:35:13.591
0, -10960.65, -16654.22, -187500.02, -187500.02, -187500.02, -187500.02, -187500.02, -187500.02, 0.000, 0.000, 0.000, 01:35:13.591
1, -10918.25, -16603.70, -187500.02, -187500.02, -187500.02, -187500.02, -187500.02, -187500.02, 0.000, 0.000, 0.000, 01:35:13.591
2, -10907.63, -16593.73, -187500.02, -187500.02, -187500.02, -187500.02, -187500.02, -187500.02, 0.000, 0.000, 0.000, 01:35:13.591
3, -10934.65, -16621.83, -187500.02, -187500.02, -187500.02, -187500.02, -187500.02, -187500.02, 0.000, 0.000, 0.000, 01:35:13.591
4, -10958.81, -16656.21, -187500.02, -187500.02, -187500.02, -187500.02, -187500.02, -187500.02, 0.000, 0.000, 0.000, 01:35:13.591
5, -10906.33, -16604.57, -187500.02, -187500.02, -187500.02, -187500.02, -187500.02, -187500.02, 0.000, 0.000, 0.000, 01:35:13.591
6, -10887.38, -16581.37, -187500.02, -187500.02, -187500.02, -187500.02, -187500.02, -187500.02, 0.000, 0.000, 0.000, 01:35:13.592
7, -10908.90, -16605.76, -187500.02, -187500.02, -187500.02, -187500.02, -187500.02, -187500.02, 0.162, 0.998, -0.086, 01:35:13.592
8, -10952.96, -16658.35, -187500.02, -187500.02, -187500.02, -187500.02, -187500.02, -187500.02, 0.000, 0.000, 0.000, 01:35:13.592
9, -10920.19, -16645.46, -187500.02, -187500.02, -187500.02, -187500.02, -187500.02, -187500.02, 0.000, 0.000, 0.000, 01:35:13.592
10, -10906.78, -16609.83, -187500.02, -187500.02, -187500.02, -187500.02, -187500.02, -187500.02, 0.000, 0.000, 0.000, 01:35:13.592
11, -10928.19, -16615.53, -187500.02, -187500.02, -187500.02, -187500.02, -187500.02, -187500.02, 0.000, 0.000, 0.000, 01:35:13.592
12, -10965.90, -16653.44, -187500.02, -187500.02, -187500.02, -187500.02, -187500.02, -187500.02, 0.000, 0.000, 0.000, 01:35:13.592
13, -10932.10, -16624.15, -187500.02, -187500.02, -187500.02, -187500.02, -187500.02, -187500.02, 0.000, 0.000, 0.000, 01:35:13.592
14, -10896.41, -16592.30, -187500.02, -187500.02, -187500.02, -187500.02, -187500.02, -187500.02, 0.000, 0.000, 0.000, 01:35:13.592
15, -10919.65, -16623.86, -187500.02, -187500.02, -187500.02, -187500.02, -187500.02, -187500.02, 0.000, 0.000, 0.000, 01:35:13.593
16, -10956.83, -16653.64, -187500.02, -187500.02, -187500.02, -187500.02, -187500.02, -187500.02, 0.000, 0.000, 0.000, 01:35:13.593
17, -10949.69, -16645.97, -187500.02, -187500.02, -187500.02, -187500.02, -187500.02, -187500.02, 0.166, 0.998, -0.086, 01:35:13.593
18, -10907.25, -16609.78, -187500.02, -187500.02, -187500.02, -187500.02, -187500.02, -187500.02, 0.000, 0.000, 0.000, 01:35:13.593
19, -10916.95, -16619.59, -187500.02, -187500.02, -187500.02, -187500.02, -187500.02, -187500.02, 0.000, 0.000, 0.000, 01:35:13.593
20, -10953.03, -16652.63, -187500.02, -187500.02, -187500.02, -187500.02, -187500.02, -187500.02, 0.000, 0.000, 0.000, 01:35:13.593
21, -10966.55, -16662.38, -187500.02, -187500.02, -187500.02, -187500.02, -187500.02, -187500.02, 0.000, 0.000, 0.000, 01:35:13.593
22, -10906.13, -16605.51, -187500.02, -187500.02, -187500.02, -187500.02, -187500.02, -187500.02, 0.000, 0.000, 0.000, 01:35:13.593
23, -10907.18, -16601.11, -187500.02, -187500.02, -187500.02, -187500.02, -187500.02, -187500.02, 0.000, 0.000, 0.000, 01:35:13.593
24, -10936.37, -16636.96, -187500.02, -187500.02, -187500.02, -187500.02, -187500.02, -187500.02, 0.000, 0.000, 0.000, 01:35:13.594
25, -10941.83, -16654.69, -187500.02, -187500.02, -187500.02, -187500.02, -187500.02, -187500.02, 0.000, 0.000, 0.000, 01:35:13.594
26, -10894.37, -16606.47, -187500.02, -187500.02, -187500.02, -187500.02, -187500.02, -187500.02, 0.000, 0.000, 0.000, 01:35:13.594
27, -10887.18, -16587.47, -187500.02, -187500.02, -187500.02, -187500.02, -187500.02, -187500.02, 0.164, 1.002, -0.078, 01:35:13.594
28, -10916.55, -16621.47, -187500.02, -187500.02, -187500.02, -187500.02, -187500.02, -187500.02, 0.000, 0.000, 0.000, 01:35:13.594
29, -10952.00, -16653.68, -187500.02, -187500.02, -187500.02, -187500.02, -187500.02, -187500.02, 0.000, 0.000, 0.000, 01:35:13.594
30, -10907.11, -16601.18, -187500.02, -187500.02, -187500.02, -187500.02, -187500.02, -187500.02, 0.000, 0.000, 0.000, 01:35:13.594
31, -10896.86, -16602.09, -187500.02, -187500.02, -187500.02, -187500.02, -187500.02, -187500.02, 0.000, 0.000, 0.000, 01:35:13.594
32, -10915.29, -16615.93, -187500.02, -187500.02, -187500.02, -187500.02, -187500.02, -187500.02, 0.000, 0.000, 0.000, 01:35:13.594
33, -10952.09, -16652.81, -187500.02, -187500.02, -187500.02, -187500.02, -187500.02, -187500.02, 0.000, 0.000, 0.000, 01:35:13.595
34, -10922.98, -16625.00, -187500.02, -187500.02, -187500.02, -187500.02, -187500.02, -187500.02, 0.000, 0.000, 0.000, 01:35:13.595
35, -10900.03, -16596.19, -187500.02, -187500.02, -187500.02, -187500.02, -187500.02, -187500.02, 0.000, 0.000, 0.000, 01:35:13.595
36, -10911.99, -16618.48, -187500.02, -187500.02, -187500.02, -187500.02, -187500.02, -187500.02, 0.000, 0.000, 0.000, 01:35:13.595
37, -10945.74, -16643.47, -187500.02, -187500.02, -187500.02, -187500.02, -187500.02, -187500.02, 0.166, 1.004, -0.076, 01:35:13.595
38, -10921.51, -16622.81, -187500.02, -187500.02, -187500.02, -187500.02, -187500.02, -187500.02, 0.000, 0.000, 0.000, 01:35:13.595
39, -10893.90, -16600.24, -187500.02, -187500.02, -187500.02, -187500.02, -187500.02, -187500.02, 0.000, 0.000, 0.000, 01:35:13.595
40, -10899.05, -16606.68, -187500.02, -187500.02, -187500.02, -187500.02, -187500.02, -187500.02, 0.000, 0.000, 0.000, 01:35:13.596
41, -10939.19, -16665.86, -187500.02, -187500.02, -187500.02, -187500.02, -187500.02, -187500.02, 0.000, 0.000, 0.000, 01:35:13.596
42, -10927.41, -16659.43, -187500.02, -187500.02, -187500.02, -187500.02, -187500.02, -187500.02, 0.000, 0.000, 0.000, 01:35:13.596
43, -10901.82, -16601.62, -187500.02, -187500.02, -187500.02, -187500.02, -187500.02, -187500.02, 0.000, 0.000, 0.000, 01:35:13.596
44, -10912.99, -16609.87, -187500.02, -187500.02, -187500.02, -187500.02, -187500.02, -187500.02, 0.000, 0.000, 0.000, 01:35:13.596
45, -10929.71, -16634.26, -187500.02, -187500.02, -187500.02, -187500.02, -187500.02, -187500.02, 0.000, 0.000, 0.000, 01:35:13.596
46, -10937.80, -16653.84, -187500.02, -187500.02, -187500.02, -187500.02, -187500.02, -187500.02, 0.000, 0.000, 0.000, 01:35:13.596
47, -10913.66, -16628.15, -187500.02, -187500.02, -187500.02, -187500.02, -187500.02, -187500.02, 0.164, 1.002, -0.074, 01:35:13.597
48, -10923.77, -16615.48, -187500.02, -187500.02, -187500.02, -187500.02, -187500.02, -187500.02, 0.000, 0.000, 0.000, 01:35:13.597
49, -10959.28, -16649.68, -187500.02, -187500.02, -187500.02, -187500.02, -187500.02, -187500.02, 0.000, 0.000, 0.000, 01:35:13.597
50, -10954.34, -16656.32, -187500.02, -187500.02, -187500.02, -187500.02, -187500.02, -187500.02, 0.000, 0.000, 0.000, 01:35:13.597
51, -10905.88, -16610.50, -187500.02, -187500.02, -187500.02, -187500.02, -187500.02, -187500.02, 0.000, 0.000, 0.000, 01:35:13.597
52, -10901.62, -16601.24, -187500.02, -187500.02, -187500.02, -187500.02, -187500.02, -187500.02, 0.000, 0.000, 0.000, 01:35:13.598
53, -10934.27, -16631.93, -187500.02, -187500.02, -187500.02, -187500.02, -187500.02, -187500.02, 0.000, 0.000, 0.000, 01:35:13.598
54, -10965.54, -16661.68, -187500.02, -187500.02, -187500.02, -187500.02, -187500.02, -187500.02, 0.000, 0.000, 0.000, 01:35:13.598
55, -10934.16, -16639.06, -187500.02, -187500.02, -187500.02, -187500.02, -187500.02, -187500.02, 0.000, 0.000, 0.000, 01:35:13.598
56, -10922.07, -16638.28, -187500.02, -187500.02, -187500.02, -187500.02, -187500.02, -187500.02, 0.000, 0.000, 0.000, 01:35:13.598
57, -10939.77, -16659.76, -187500.02, -187500.02, -187500.02, -187500.02, -187500.02, -187500.02, 0.162, 0.996, -0.076, 01:35:13.598
58, -10974.28, -16679.68, -187500.02, -187500.02, -187500.02, -187500.02, -187500.02, -187500.02, 0.000, 0.000, 0.000, 01:35:13.598
59, -10941.51, -16648.49, -187500.02, -187500.02, -187500.02, -187500.02, -187500.02, -187500.02, 0.000, 0.000, 0.000, 01:35:13.598
60, -10922.72, -16631.20, -187500.02, -187500.02, -187500.02, -187500.02, -187500.02, -187500.02, 0.000, 0.000, 0.000, 01:35:13.599
61, -10936.28, -16646.39, -187500.02, -187500.02, -187500.02, -187500.02, -187500.02, -187500.02, 0.000, 0.000, 0.000, 01:35:13.599
62, -10969.12, -16666.87, -187500.02, -187500.02, -187500.02, -187500.02, -187500.02, -187500.02, 0.000, 0.000, 0.000, 01:35:13.599
63, -10947.35, -16651.83, -187500.02, -187500.02, -187500.02, -187500.02, -187500.02, -187500.02, 0.000, 0.000, 0.000, 01:35:13.599
64, -10908.92, -16613.49, -187500.02, -187500.02, -187500.02, -187500.02, -187500.02, -187500.02, 0.000, 0.000, 0.000, 01:35:13.599
65, -10911.32, -16628.83, -187500.02, -187500.02, -187500.02, -187500.02, -187500.02, -187500.02, 0.000, 0.000, 0.000, 01:35:13.599
66, -10940.82, -16654.37, -187500.02, -187500.02, -187500.02, -187500.02, -187500.02, -187500.02, 0.158, 1.002, -0.080, 01:35:13.600
67, -10943.19, -16658.84, -187500.02, -187500.02, -187500.02, -187500.02, -187500.02, -187500.02, 0.000, 0.000, 0.000, 01:35:13.600
68, -10917.40, -16638.01, -187500.02, -187500.02, -187500.02, -187500.02, -187500.02, -187500.02, 0.000, 0.000, 0.000, 01:35:13.600
69, -10936.64, -16647.42, -187500.02, -187500.02, -187500.02, -187500.02, -187500.02, -187500.02, 0.000, 0.000, 0.000, 01:35:13.600
70, -10952.51, -16648.43, -187500.02, -187500.02, -187500.02, -187500.02, -187500.02, -187500.02, 0.000, 0.000, 0.000, 01:35:13.600
71, -10969.39, -16661.86, -187500.02, -187500.02, -187500.02, -187500.02, -187500.02, -187500.02, 0.000, 0.000, 0.000, 01:35:13.600
72, -10928.50, -16629.16, -187500.02, -187500.02, -187500.02, -187500.02, -187500.02, -187500.02, 0.000, 0.000, 0.000, 01:35:13.600
73, -10904.32, -16623.24, -187500.02, -187500.02, -187500.02, -187500.02, -187500.02, -187500.02, 0.000, 0.000, 0.000, 01:35:13.601
74, -10936.24, -16659.60, -187500.02, -187500.02, -187500.02, -187500.02, -187500.02, -187500.02, 0.000, 0.000, 0.000, 01:35:13.601
75, -10958.99, -16671.43, -187500.02, -187500.02, -187500.02, -187500.02, -187500.02, -187500.02, 0.000, 0.000, 0.000, 01:35:13.601
76, -10920.75, -16634.88, -187500.02, -187500.02, -187500.02, -187500.02, -187500.02, -187500.02, 0.158, 1.004, -0.076, 01:35:13.601
77, -10910.13, -16624.38, -187500.02, -187500.02, -187500.02, -187500.02, -187500.02, -187500.02, 0.000, 0.000, 0.000, 01:35:13.601
78, -10925.93, -16647.51, -187500.02, -187500.02, -187500.02, -187500.02, -187500.02, -187500.02, 0.000, 0.000, 0.000, 01:35:13.601
79, -10952.89, -16668.50, -187500.02, -187500.02, -187500.02, -187500.02, -187500.02, -187500.02, 0.000, 0.000, 0.000, 01:35:13.601
80, -10912.61, -16627.51, -187500.02, -187500.02, -187500.02, -187500.02, -187500.02, -187500.02, 0.000, 0.000, 0.000, 01:35:13.601
81, -10896.41, -16617.29, -187500.02, -187500.02, -187500.02, -187500.02, -187500.02, -187500.02, 0.000, 0.000, 0.000, 01:35:13.601
82, -10914.92, -16639.93, -187500.02, -187500.02, -187500.02, -187500.02, -187500.02, -187500.02, 0.000, 0.000, 0.000, 01:35:13.602
83, -10948.76, -16687.70, -187500.02, -187500.02, -187500.02, -187500.02, -187500.02, -187500.02, 0.000, 0.000, 0.000, 01:35:13.602
84, -10925.17, -16655.09, -187500.02, -187500.02, -187500.02, -187500.02, -187500.02, -187500.02, 0.000, 0.000, 0.000, 01:35:13.602
85, -10901.46, -16627.93, -187500.02, -187500.02, -187500.02, -187500.02, -187500.02, -187500.02, 0.000, 0.000, 0.000, 01:35:13.602
86, -10900.79, -16634.37, -187500.02, -187500.02, -187500.02, -187500.02, -187500.02, -187500.02, 0.156, 1.000, -0.078, 01:35:13.602
87, -10933.49, -16666.04, -187500.02, -187500.02, -187500.02, -187500.02, -187500.02, -187500.02, 0.000, 0.000, 0.000, 01:35:13.602
88, -10928.33, -16664.03, -187500.02, -187500.02, -187500.02, -187500.02, -187500.02, -187500.02, 0.000, 0.000, 0.000, 01:35:13.602
89, -10895.60, -16638.06, -187500.02, -187500.02, -187500.02, -187500.02, -187500.02, -187500.02, 0.000, 0.000, 0.000, 01:35:13.602
90, -10892.94, -16603.03, -187500.02, -187500.02, -187500.02, -187500.02, -187500.02, -187500.02, 0.000, 0.000, 0.000, 01:35:13.602
91, -10936.69, -16645.28, -187500.02, -187500.02, -187500.02, -187500.02, -187500.02, -187500.02, 0.000, 0.000, 0.000, 01:35:13.603
92, -10929.44, -16648.85, -187500.02, -187500.02, -187500.02, -187500.02, -187500.02, -187500.02, 0.000, 0.000, 0.000, 01:35:13.603
93, -10891.16, -16606.65, -187500.02, -187500.02, -187500.02, -187500.02, -187500.02, -187500.02, 0.000, 0.000, 0.000, 01:35:13.603
94, -10891.63, -16615.19, -187500.02, -187500.02, -187500.02, -187500.02, -187500.02, -187500.02, 0.000, 0.000, 0.000, 01:35:13.603
95, -10936.73, -16658.22, -187500.02, -187500.02, -187500.02, -187500.02, -187500.02, -187500.02, 0.000, 0.000, 0.000, 01:35:13.603
96, -10946.61, -16658.80, -187500.02, -187500.02, -187500.02, -187500.02, -187500.02, -187500.02, 0.156, 1.004, -0.084, 01:35:13.603
97, -10887.85, -16607.12, -187500.02, -187500.02, -187500.02, -187500.02, -187500.02, -187500.02, 0.000, 0.000, 0.000, 01:35:13.603
98, -10896.01, -16615.48, -187500.02, -187500.02, -187500.02, -187500.02, -187500.02, -187500.02, 0.000, 0.000, 0.000, 01:35:13.603
99, -10919.88, -16639.96, -187500.02, -187500.02, -187500.02, -187500.02, -187500.02, -187500.02, 0.000, 0.000, 0.000, 01:35:13.603
100, -10941.94, -16665.28, -187500.02, -187500.02, -187500.02, -187500.02, -187500.02, -187500.02, 0.000, 0.000, 0.000, 01:35:13.603
101, -10908.61, -16631.96, -187500.02, -187500.02, -187500.02, -187500.02, -187500.02, -187500.02, 0.000, 0.000, 0.000, 01:35:13.604
102, -10901.37, -16611.39, -187500.02, -187500.02, -187500.02, -187500.02, -187500.02, -187500.02, 0.000, 0.000, 0.000, 01:35:13.604
103, -10920.08, -16628.65, -187500.02, -187500.02, -187500.02, -187500.02, -187500.02, -187500.02, 0.000, 0.000, 0.000, 01:35:13.604
104, -10938.61, -16651.67, -187500.02, -187500.02, -187500.02, -187500.02, -187500.02, -187500.02, 0.000, 0.000, 0.000, 01:35:13.604
105, -10912.25, -16628.07, -187500.02, -187500.02, -187500.02, -187500.02, -187500.02, -187500.02, 0.000, 0.000, 0.000, 01:35:14.070
106, -10896.14, -16607.14, -187500.02, -187500.02, -187500.02, -187500.02, -187500.02, -187500.02, 0.160, 1.002, -0.080, 01:35:14.070
107, -10924.84, -16628.96, -187500.02, -187500.02, -187500.02, -187500.02, -187500.02, -187500.02, 0.000, 0.000, 0.000, 01:35:14.071
108, -10966.82, -16672.99, -187500.02, -187500.02, -187500.02, -187500.02, -187500.02, -187500.02, 0.000, 0.000, 0.000, 01:35:14.071
109, -10934.74, -16644.72, -187500.02, -187500.02, -187500.02, -187500.02, -187500.02, -187500.02, 0.000, 0.000, 0.000, 01:35:14.071
110, -10904.79, -16609.65, -187500.02, -187500.02, -187500.02, -187500.02, -187500.02, -187500.02, 0.000, 0.000, 0.000, 01:35:14.071
111, -10915.07, -16627.19, -187500.02, -187500.02, -187500.02, -187500.02, -187500.02, -187500.02, 0.000, 0.000, 0.000, 01:35:14.071
112, -10959.28, -16667.67, -187500.02, -187500.02, -187500.02, -187500.02, -187500.02, -187500.02, 0.000, 0.000, 0.000, 01:35:14.071
113, -10942.59, -16635.17, -187500.02, -187500.02, -187500.02, -187500.02, -187500.02, -187500.02, 0.000, 0.000, 0.000, 01:35:14.071
114, -10902.98, -16608.69, -187500.02, -187500.02, -187500.02, -187500.02, -187500.02, -187500.02, 0.000, 0.000, 0.000, 01:35:14.071
115, -10915.88, -16614.16, -187500.02, -187500.02, -187500.02, -187500.02, -187500.02, -187500.02, 0.000, 0.000, 0.000, 01:35:14.072
116, -10952.96, -16653.95, -187500.02, -187500.02, -187500.02, -187500.02, -187500.02, -187500.02, 0.164, 0.998, -0.078, 01:35:14.072
117, -10938.56, -16649.79, -187500.02, -187500.02, -187500.02, -187500.02, -187500.02, -187500.02, 0.000, 0.000, 0.000, 01:35:14.072
118, -10895.58, -16599.32, -187500.02, -187500.02, -187500.02, -187500.02, -187500.02, -187500.02, 0.000, 0.000, 0.000, 01:35:14.072
119, -10902.55, -16598.54, -187500.02, -187500.02, -187500.02, -187500.02, -187500.02, -187500.02, 0.000, 0.000, 0.000, 01:35:14.072
120, -10932.73, -16631.64, -187500.02, -187500.02, -187500.02, -187500.02, -187500.02, -187500.02, 0.000, 0.000, 0.000, 01:35:14.073
121, -10947.08, -16655.83, -187500.02, -187500.02, -187500.02, -187500.02, -187500.02, -187500.02, 0.000, 0.000, 0.000, 01:35:14.073
122, -10911.38, -16616.96, -187500.02, -187500.02, -187500.02, -187500.02, -187500.02, -187500.02, 0.000, 0.000, 0.000, 01:35:14.073
123, -10906.24, -16610.65, -187500.02, -187500.02, -187500.02, -187500.02, -187500.02, -187500.02, 0.000, 0.000, 0.000, 01:35:14.073
124, -10925.38, -16633.61, -187500.02, -187500.02, -187500.02, -187500.02, -187500.02, -187500.02, 0.000, 0.000, 0.000, 01:35:14.073
125, -10957.03, -16661.64, -187500.02, -187500.02, -187500.02, -187500.02, -187500.02, -187500.02, 0.166, 1.006, -0.078, 01:35:14.073
126, -10914.07, -16631.46, -187500.02, -187500.02, -187500.02, -187500.02, -187500.02, -187500.02, 0.000, 0.000, 0.000, 01:35:14.073
127, -10895.04, -16617.83, -187500.02, -187500.02, -187500.02, -187500.02, -187500.02, -187500.02, 0.000, 0.000, 0.000, 01:35:14.073
128, -10905.91, -16612.11, -187500.02, -187500.02, -187500.02, -187500.02, -187500.02, -187500.02, 0.000, 0.000, 0.000, 01:35:14.073
129, -10948.87, -16649.23, -187500.02, -187500.02, -187500.02, -187500.02, -187500.02, -187500.02, 0.000, 0.000, 0.000, 01:35:14.073
130, -10911.83, -16617.87, -187500.02, -187500.02, -187500.02, -187500.02, -187500.02, -187500.02, 0.000, 0.000, 0.000, 01:35:14.073
131, -10890.95, -16598.61, -187500.02, -187500.02, -187500.02, -187500.02, -187500.02, -187500.02, 0.000, 0.000, 0.000, 01:35:14.073
132, -10911.76, -16606.45, -187500.02, -187500.02, -187500.02, -187500.02, -187500.02, -187500.02, 0.000, 0.000, 0.000, 01:35:14.074
133, -10953.38, -16656.21, -187500.02, -187500.02, -187500.02, -187500.02, -187500.02, -187500.02, 0.000, 0.000, 0.000, 01:35:14.074
134, -10927.48, -16639.31, -187500.02, -187500.02, -187500.02, -187500.02, -187500.02, -187500.02, 0.000, 0.000, 0.000, 01:35:14.074
135, -10899.67, -16606.92, -187500.02, -187500.02, -187500.02, -187500.02, -187500.02, -187500.02, 0.162, 1.008, -0.076, 01:35:14.074
136, -10915.79, -16614.97, -187500.02, -187500.02, -187500.02, -187500.02, -187500.02, -187500.02, 0.000, 0.000, 0.000, 01:35:14.074
137, -10946.77, -16652.27, -187500.02, -187500.02, -187500.02, -187500.02, -187500.02, -187500.02, 0.000, 0.000, 0.000, 01:35:14.074
138, -10931.30, -16642.68, -187500.02, -187500.02, -187500.02, -187500.02, -187500.02, -187500.02, 0.000, 0.000, 0.000, 01:35:14.074
139, -10897.82, -16604.26, -187500.02, -187500.02, -187500.02, -187500.02, -187500.02, -187500.02, 0.000, 0.000, 0.000, 01:35:14.074
140, -10902.49, -16607.44, -187500.02, -187500.02, -187500.02, -187500.02, -187500.02, -187500.02, 0.000, 0.000, 0.000, 01:35:14.075
141, -10941.00, -16652.63, -187500.02, -187500.02, -187500.02, -187500.02, -187500.02, -187500.02, 0.000, 0.000, 0.000, 01:35:14.075
142, -10953.38, -16668.12, -187500.02, -187500.02, -187500.02, -187500.02, -187500.02, -187500.02, 0.000, 0.000, 0.000, 01:35:14.075
143, -10908.12, -16619.53, -187500.02, -187500.02, -187500.02, -187500.02, -187500.02, -187500.02, 0.000, 0.000, 0.000, 01:35:14.075
144, -10914.56, -16624.98, -187500.02, -187500.02, -187500.02, -187500.02, -187500.02, -187500.02, 0.000, 0.000, 0.000, 01:35:14.075
145, -10942.77, -16654.87, -187500.02, -187500.02, -187500.02, -187500.02, -187500.02, -187500.02, 0.160, 1.006, -0.078, 01:35:14.075
146, -10943.44, -16655.78, -187500.02, -187500.02, -187500.02, -187500.02, -187500.02, -187500.02, 0.000, 0.000, 0.000, 01:35:14.075
147, -10905.13, -16618.21, -187500.02, -187500.02, -187500.02, -187500.02, -187500.02, -187500.02, 0.000, 0.000, 0.000, 01:35:14.075
148, -10896.45, -16600.73, -187500.02, -187500.02, -187500.02, -187500.02, -187500.02, -187500.02, 0.000, 0.000, 0.000, 01:35:14.075
149, -10905.50, -16606.70, -187500.02, -187500.02, -187500.02, -187500.02, -187500.02, -187500.02, 0.000, 0.000, 0.000, 01:35:14.076
150, -10933.96, -16638.01, -187500.02, -187500.02, -187500.02, -187500.02, -187500.02, -187500.02, 0.000, 0.000, 0.000, 01:35:14.076
151, -10909.57, -16609.87, -187500.02, -187500.02, -187500.02, -187500.02, -187500.02, -187500.02, 0.000, 0.000, 0.000, 01:35:14.076
152, -10889.59, -16590.36, -187500.02, -187500.02, -187500.02, -187500.02, -187500.02, -187500.02, 0.000, 0.000, 0.000, 01:35:14.076
153, -10909.26, -16617.25, -187500.02, -187500.02, -187500.02, -187500.02, -187500.02, -187500.02, 0.000, 0.000, 0.000, 01:35:14.076
154, -10954.77, -16670.98, -187500.02, -187500.02, -187500.02, -187500.02, -187500.02, -187500.02, 0.000, 0.000, 0.000, 01:35:14.076
155, -10930.45, -16641.63, -187500.02, -187500.02, -187500.02, -187500.02, -187500.02, -187500.02, 0.156, 1.002, -0.082, 01:35:14.076
156, -10892.74, -16603.79, -187500.02, -187500.02, -187500.02, -187500.02, -187500.02, -187500.02, 0.000, 0.000, 0.000, 01:35:14.077
157, -10919.88, -16615.88, -187500.02, -187500.02, -187500.02, -187500.02, -187500.02, -187500.02, 0.000, 0.000, 0.000, 01:35:14.077
158, -10952.20, -16650.26, -187500.02, -187500.02, -187500.02, -187500.02, -187500.02, -187500.02, 0.000, 0.000, 0.000, 01:35:14.077
159, -10922.72, -16630.90, -187500.02, -187500.02, -187500.02, -187500.02, -187500.02, -187500.02, 0.000, 0.000, 0.000, 01:35:14.077
160, -10895.25, -16611.50, -187500.02, -187500.02, -187500.02, -187500.02, -187500.02, -187500.02, 0.000, 0.000, 0.000, 01:35:14.077
161, -10896.65, -16609.45, -187500.02, -187500.02, -187500.02, -187500.02, -187500.02, -187500.02, 0.000, 0.000, 0.000, 01:35:14.077
162, -10935.01, -16634.55, -187500.02, -187500.02, -187500.02, -187500.02, -187500.02, -187500.02, 0.000, 0.000, 0.000, 01:35:14.077
163, -10933.85, -16639.40, -187500.02, -187500.02, -187500.02, -187500.02, -187500.02, -187500.02, 0.000, 0.000, 0.000, 01:35:14.077
164, -10898.93, -16605.45, -187500.02, -187500.02, -187500.02, -187500.02, -187500.02, -187500.02, 0.000, 0.000, 0.000, 01:35:14.078
165, -10915.09, -16612.42, -187500.02, -187500.02, -187500.02, -187500.02, -187500.02, -187500.02, 0.158, 1.002, -0.076, 01:35:14.078
166, -10950.48, -16645.52, -187500.02, -187500.02, -187500.02, -187500.02, -187500.02, -187500.02, 0.000, 0.000, 0.000, 01:35:14.078
167, -10948.44, -16657.35, -187500.02, -187500.02, -187500.02, -187500.02, -187500.02, -187500.02, 0.000, 0.000, 0.000, 01:35:14.078
168, -10905.08, -16608.11, -187500.02, -187500.02, -187500.02, -187500.02, -187500.02, -187500.02, 0.000, 0.000, 0.000, 01:35:14.078
169, -10912.03, -16603.99, -187500.02, -187500.02, -187500.02, -187500.02, -187500.02, -187500.02, 0.000, 0.000, 0.000, 01:35:14.078
170, -10931.59, -16635.24, -187500.02, -187500.02, -187500.02, -187500.02, -187500.02, -187500.02, 0.000, 0.000, 0.000, 01:35:14.078
171, -10955.08, -16663.25, -187500.02, -187500.02, -187500.02, -187500.02, -187500.02, -187500.02, 0.000, 0.000, 0.000, 01:35:14.079
172, -10901.59, -16625.34, -187500.02, -187500.02, -187500.02, -187500.02, -187500.02, -187500.02, 0.000, 0.000, 0.000, 01:35:14.079
173, -10919.88, -16627.66, -187500.02, -187500.02, -187500.02, -187500.02, -187500.02, -187500.02, 0.000, 0.000, 0.000, 01:35:14.080
174, -10932.55, -16621.90, -187500.02, -187500.02, -187500.02, -187500.02, -187500.02, -187500.02, 0.000, 0.000, 0.000, 01:35:14.080
175, -10938.54, -16647.11, -187500.02, -187500.02, -187500.02, -187500.02, -187500.02, -187500.02, 0.160, 1.004, -0.076, 01:35:14.080
176, -10905.39, -16623.71, -187500.02, -187500.02, -187500.02, -187500.02, -187500.02, -187500.02, 0.000, 0.000, 0.000, 01:35:14.080
177, -10897.39, -16618.54, -187500.02, -187500.02, -187500.02, -187500.02, -187500.02, -187500.02, 0.000, 0.000, 0.000, 01:35:14.080
178, -10920.66, -16625.43, -187500.02, -187500.02, -187500.02, -187500.02, -187500.02, -187500.02, 0.000, 0.000, 0.000, 01:35:14.081
179, -10956.47, -16660.10, -187500.02, -187500.02, -187500.02, -187500.02, -187500.02, -187500.02, 0.000, 0.000, 0.000, 01:35:14.081
180, -10914.89, -16620.71, -187500.02, -187500.02, -187500.02, -187500.02, -187500.02, -187500.02, 0.000, 0.000, 0.000, 01:35:14.081
181, -10877.41, -16586.49, -187500.02, -187500.02, -187500.02, -187500.02, -187500.02, -187500.02, 0.000, 0.000, 0.000, 01:35:14.081
182, -10909.48, -16619.35, -187500.02, -187500.02, -187500.02, -187500.02, -187500.02, -187500.02, 0.000, 0.000, 0.000, 01:35:14.081
183, -10951.21, -16659.76, -187500.02, -187500.02, -187500.02, -187500.02, -187500.02, -187500.02, 0.000, 0.000, 0.000, 01:35:14.081
184, -10919.07, -16633.65, -187500.02, -187500.02, -187500.02, -187500.02, -187500.02, -187500.02, 0.000, 0.000, 0.000, 01:35:14.081
185, -10876.92, -16595.43, -187500.02, -187500.02, -187500.02, -187500.02, -187500.02, -187500.02, 0.160, 1.002, -0.074, 01:35:14.081
186, -10891.85, -16605.36, -187500.02, -187500.02, -187500.02, -187500.02, -187500.02, -187500.02, 0.000, 0.000, 0.000, 01:35:14.081
187, -10940.64, -16655.71, -187500.02, -187500.02, -187500.02, -187500.02, -187500.02, -187500.02, 0.000, 0.000, 0.000, 01:35:14.082
188, -10943.50, -16659.74, -187500.02, -187500.02, -187500.02, -187500.02, -187500.02, -187500.02, 0.000, 0.000, 0.000, 01:35:14.082
189, -10900.66, -16612.93, -187500.02, -187500.02, -187500.02, -187500.02, -187500.02, -187500.02, 0.000, 0.000, 0.000, 01:35:14.082
190, -10899.85, -16617.18, -187500.02, -187500.02, -187500.02, -187500.02, -187500.02, -187500.02, 0.000, 0.000, 0.000, 01:35:14.082
191, -10934.63, -16653.26, -187500.02, -187500.02, -187500.02, -187500.02, -187500.02, -187500.02, 0.000, 0.000, 0.000, 01:35:14.082
192, -10953.79, -16666.40, -187500.02, -187500.02, -187500.02, -187500.02, -187500.02, -187500.02, 0.000, 0.000, 0.000, 01:35:14.083
193, -10912.70, -16634.30, -187500.02, -187500.02, -187500.02, -187500.02, -187500.02, -187500.02, 0.000, 0.000, 0.000, 01:35:14.083
194, -10913.69, -16644.65, -187500.02, -187500.02, -187500.02, -187500.02, -187500.02, -187500.02, 0.154, 1.006, -0.084, 01:35:14.084
195, -10939.77, -16662.69, -187500.02, -187500.02, -187500.02, -187500.02, -187500.02, -187500.02, 0.000, 0.000, 0.000, 01:35:14.084
196, -10955.77, -16670.24, -187500.02, -187500.02, -187500.02, -187500.02, -187500.02, -187500.02, 0.000, 0.000, 0.000, 01:35:14.084
197, -10910.20, -16627.95, -187500.02, -187500.02, -187500.02, -187500.02, -187500.02, -187500.02, 0.000, 0.000, 0.000, 01:35:14.084
198, -10897.26, -16626.43, -187500.02, -187500.02, -187500.02, -187500.02, -187500.02, -187500.02, 0.000, 0.000, 0.000, 01:35:14.084
199, -10922.74, -16660.10, -187500.02, -187500.02, -187500.02, -187500.02, -187500.02, -187500.02, 0.000, 0.000, 0.000, 01:35:14.084
200, -10962.28, -16690.18, -187500.02, -187500.02, -187500.02, -187500.02, -187500.02, -187500.02, 0.000, 0.000, 0.000, 01:35:14.084
201, -10923.83, -16636.94, -187500.02, -187500.02, -187500.02, -187500.02, -187500.02, -187500.02, 0.000, 0.000, 0.000, 01:35:14.084
202, -10916.99, -16627.44, -187500.02, -187500.02, -187500.02, -187500.02, -187500.02, -187500.02, 0.000, 0.000, 0.000, 01:35:14.084
203, -10948.08, -16658.78, -187500.02, -187500.02, -187500.02, -187500.02, -187500.02, -187500.02, 0.000, 0.000, 0.000, 01:35:14.084
204, -10979.38, -16687.63, -187500.02, -187500.02, -187500.02, -187500.02, -187500.02, -187500.02, 0.160, 1.004, -0.080, 01:35:14.085
205, -10946.57, -16656.01, -187500.02, -187500.02, -187500.02, -187500.02, -187500.02, -187500.02, 0.000, 0.000, 0.000, 01:35:14.085
206, -10929.31, -16625.05, -187500.02, -187500.02, -187500.02, -187500.02, -187500.02, -187500.02, 0.000, 0.000, 0.000, 01:35:14.085
207, -10949.65, -16642.86, -187500.02, -187500.02, -187500.02, -187500.02, -187500.02, -187500.02, 0.000, 0.000, 0.000, 01:35:14.085
208, -10971.44, -16682.80, -187500.02, -187500.02, -187500.02, -187500.02, -187500.02, -187500.02, 0.000, 0.000, 0.000, 01:35:14.085
209, -10944.62, -16668.34, -187500.02, -187500.02, -187500.02, -187500.02, -187500.02, -187500.02, 0.000, 0.000, 0.000, 01:35:14.085
210, -10897.68, -16626.88, -187500.02, -187500.02, -187500.02, -187500.02, -187500.02, -187500.02, 0.000, 0.000, 0.000, 01:35:14.085
211, -10907.18, -16627.28, -187500.02, -187500.02, -187500.02, -187500.02, -187500.02, -187500.02, 0.000, 0.000, 0.000, 01:35:14.085
212, -10941.31, -16654.87, -187500.02, -187500.02, -187500.02, -187500.02, -187500.02, -187500.02, 0.000, 0.000, 0.000, 01:35:14.085
213, -10947.30, -16669.35, -187500.02, -187500.02, -187500.02, -187500.02, -187500.02, -187500.02, 0.000, 0.000, 0.000, 01:35:14.086
214, -10908.48, -16637.99, -187500.02, -187500.02, -187500.02, -187500.02, -187500.02, -187500.02, 0.152, 1.002, -0.086, 01:35:14.086
215, -10912.01, -16627.62, -187500.02, -187500.02, -187500.02, -187500.02, -187500.02, -187500.02, 0.000, 0.000, 0.000, 01:35:14.086
216, -10952.85, -16668.43, -187500.02, -187500.02, -187500.02, -187500.02, -187500.02, -187500.02, 0.000, 0.000, 0.000, 01:35:14.086
217, -10971.42, -16687.99, -187500.02, -187500.02, -187500.02, -187500.02, -187500.02, -187500.02, 0.000, 0.000, 0.000, 01:35:14.086
218, -10925.20, -16640.96, -187500.02, -187500.02, -187500.02, -187500.02, -187500.02, -187500.02, 0.000, 0.000, 0.000, 01:35:14.086
219, -10919.77, -16636.00, -187500.02, -187500.02, -187500.02, -187500.02, -187500.02, -187500.02, 0.000, 0.000, 0.000, 01:35:14.086
220, -10956.33, -16672.23, -187500.02, -187500.02, -187500.02, -187500.02, -187500.02, -187500.02, 0.000, 0.000, 0.000, 01:35:14.087
221, -10977.66, -16682.87, -187500.02, -187500.02, -187500.02, -187500.02, -187500.02, -187500.02, 0.000, 0.000, 0.000, 01:35:14.087
222, -10937.18, -16638.32, -187500.02, -187500.02, -187500.02, -187500.02, -187500.02, -187500.02, 0.000, 0.000, 0.000, 01:35:14.087
223, -10923.97, -16621.29, -187500.02, -187500.02, -187500.02, -187500.02, -187500.02, -187500.02, 0.000, 0.000, 0.000, 01:35:14.087
224, -10932.44, -16628.60, -187500.02, -187500.02, -187500.02, -187500.02, -187500.02, -187500.02, 0.152, 0.998, -0.084, 01:35:14.087
225, -10956.06, -16670.67, -187500.02, -187500.02, -187500.02, -187500.02, -187500.02, -187500.02, 0.000, 0.000, 0.000, 01:35:14.551
226, -10916.52, -16641.19, -187500.02, -187500.02, -187500.02, -187500.02, -187500.02, -187500.02, 0.000, 0.000, 0.000, 01:35:14.551
227, -10912.14, -16634.53, -187500.02, -187500.02, -187500.02, -187500.02, -187500.02, -187500.02, 0.000, 0.000, 0.000, 01:35:14.551
228, -10926.52, -16632.45, -187500.02, -187500.02, -187500.02, -187500.02, -187500.02, -187500.02, 0.000, 0.000, 0.000, 01:35:14.551
229, -10955.80, -16669.55, -187500.02, -187500.02, -187500.02, -187500.02, -187500.02, -187500.02, 0.000, 0.000, 0.000, 01:35:14.551
230, -10934.38, -16652.88, -187500.02, -187500.02, -187500.02, -187500.02, -187500.02, -187500.02, 0.000, 0.000, 0.000, 01:35:14.552
231, -10905.86, -16618.34, -187500.02, -187500.02, -187500.02, -187500.02, -187500.02, -187500.02, 0.000, 0.000, 0.000, 01:35:14.552
232, -10920.37, -16637.39, -187500.02, -187500.02, -187500.02, -187500.02, -187500.02, -187500.02, 0.000, 0.000, 0.000, 01:35:14.552
233, -10954.19, -16668.05, -187500.02, -187500.02, -187500.02, -187500.02, -187500.02, -187500.02, 0.000, 0.000, 0.000, 01:35:14.552
234, -10935.41, -16658.58, -187500.02, -187500.02, -187500.02, -187500.02, -187500.02, -187500.02, 0.148, 0.996, -0.082, 01:35:14.552
235, -10902.06, -16637.81, -187500.02, -187500.02, -187500.02, -187500.02, -187500.02, -187500.02, 0.000, 0.000, 0.000, 01:35:14.553
236, -10926.90, -16656.63, -187500.02, -187500.02, -187500.02, -187500.02, -187500.02, -187500.02, 0.000, 0.000, 0.000, 01:35:14.553
237, -10961.12, -16667.40, -187500.02, -187500.02, -187500.02, -187500.02, -187500.02, -187500.02, 0.000, 0.000, 0.000, 01:35:14.553
238, -10955.35, -16662.80, -187500.02, -187500.02, -187500.02, -187500.02, -187500.02, -187500.02, 0.000, 0.000, 0.000, 01:35:14.553
239, -10900.48, -16606.50, -187500.02, -187500.02, -187500.02, -187500.02, -187500.02, -187500.02, 0.000, 0.000, 0.000, 01:35:14.553
240, -10912.66, -16626.48, -187500.02, -187500.02, -187500.02, -187500.02, -187500.02, -187500.02, 0.000, 0.000, 0.000, 01:35:14.553
241, -10953.79, -16663.16, -187500.02, -187500.02, -187500.02, -187500.02, -187500.02, -187500.02, 0.000, 0.000, 0.000, 01:35:14.554
242, -10970.95, -16678.33, -187500.02, -187500.02, -187500.02, -187500.02, -187500.02, -187500.02, 0.000, 0.000, 0.000, 01:35:14.554
243, -10917.20, -16637.63, -187500.02, -187500.02, -187500.02, -187500.02, -187500.02, -187500.02, 0.000, 0.000, 0.000, 01:35:14.554
244, -10907.90, -16635.73, -187500.02, -187500.02, -187500.02, -187500.02, -187500.02, -187500.02, 0.152, 0.998, -0.078, 01:35:14.554
245, -10945.87, -16662.96, -187500.02, -187500.02, -187500.02, -187500.02, -187500.02, -187500.02, 0.000, 0.000, 0.000, 01:35:14.554
246, -10964.65, -16678.67, -187500.02, -187500.02, -187500.02, -187500.02, -187500.02, -187500.02, 0.000, 0.000, 0.000, 01:35:14.554
247, -10916.95, -16629.45, -187500.02, -187500.02, -187500.02, -187500.02, -187500.02, -187500.02, 0.000, 0.000, 0.000, 01:35:14.555
248, -10907.52, -16626.81, -187500.02, -187500.02, -187500.02, -187500.02, -187500.02, -187500.02, 0.000, 0.000, 0.000, 01:35:14.555
249, -10937.65, -16656.32, -187500.02, -187500.02, -187500.02, -187500.02, -187500.02, -187500.02, 0.000, 0.000, 0.000, 01:35:14.555
250, -10964.20, -16688.64, -187500.02, -187500.02, -187500.02, -187500.02, -187500.02, -187500.02, 0.000, 0.000, 0.000, 01:35:14.555
251, -10931.63, -16668.72, -187500.02, -187500.02, -187500.02, -187500.02, -187500.02, -187500.02, 0.000, 0.000, 0.000, 01:35:14.555
252, -10907.23, -16627.95, -187500.02, -187500.02, -187500.02, -187500.02, -187500.02, -187500.02, 0.000, 0.000, 0.000, 01:35:14.556
253, -10915.79, -16630.64, -187500.02, -187500.02, -187500.02, -187500.02, -187500.02, -187500.02, 0.154, 0.998, -0.082, 01:35:14.556
254, -10952.24, -16667.23, -187500.02, -187500.02, -187500.02, -187500.02, -187500.02, -187500.02, 0.000, 0.000, 0.000, 01:35:14.556
255, -10939.97, -16671.79, -187500.02, -187500.02, -187500.02, -187500.02, -187500.02, -187500.02, 0.000, 0.000, 0.000, 01:35:14.556
0, -10920.10, -16644.88, -187500.02, -187500.02, -187500.02, -187500.02, -187500.02, -187500.02, 0.000, 0.000, 0.000, 01:35:14.556
1, -10918.98, -16646.95, -187500.02, -187500.02, -187500.02, -187500.02, -187500.02, -187500.02, 0.000, 0.000, 0.000, 01:35:14.556
2, -10961.88, -16682.45, -187500.02, -187500.02, -187500.02, -187500.02, -187500.02, -187500.02, 0.000, 0.000, 0.000, 01:35:14.557
3, -10946.92, -16669.39, -187500.02, -187500.02, -187500.02, -187500.02, -187500.02, -187500.02, 0.000, 0.000, 0.000, 01:35:14.557
4, -10910.91, -16639.78, -187500.02, -187500.02, -187500.02, -187500.02, -187500.02, -187500.02, 0.000, 0.000, 0.000, 01:35:14.557
5, -10917.04, -16638.91, -187500.02, -187500.02, -187500.02, -187500.02, -187500.02, -187500.02, 0.000, 0.000, 0.000, 01:35:14.557
6, -10944.89, -16677.02, -187500.02, -187500.02, -187500.02, -187500.02, -187500.02, -187500.02, 0.000, 0.000, 0.000, 01:35:14.557
7, -10956.49, -16689.64, -187500.02, -187500.02, -187500.02, -187500.02, -187500.02, -187500.02, 0.154, 1.006, -0.078, 01:35:14.558
8, -10910.60, -16631.13, -187500.02, -187500.02, -187500.02, -187500.02, -187500.02, -187500.02, 0.000, 0.000, 0.000, 01:35:14.558
9, -10908.77, -16628.80, -187500.02, -187500.02, -187500.02, -187500.02, -187500.02, -187500.02, 0.000, 0.000, 0.000, 01:35:14.558
10, -10936.08, -16656.83, -187500.02, -187500.02, -187500.02, -187500.02, -187500.02, -187500.02, 0.000, 0.000, 0.000, 01:35:14.558
11, -10961.83, -16689.53, -187500.02, -187500.02, -187500.02, -187500.02, -187500.02, -187500.02, 0.000, 0.000, 0.000, 01:35:14.558
12, -10922.11, -16645.48, -187500.02, -187500.02, -187500.02, -187500.02, -187500.02, -187500.02, 0.000, 0.000, 0.000, 01:35:14.558
13, -10919.30, -16636.22, -187500.02, -187500.02, -187500.02, -187500.02, -187500.02, -187500.02, 0.000, 0.000, 0.000, 01:35:14.558
14, -10941.54, -16658.55, -187500.02, -187500.02, -187500.02, -187500.02, -187500.02, -187500.02, 0.000, 0.000, 0.000, 01:35:14.558
15, -10967.58, -16697.18, -187500.02, -187500.02, -187500.02, -187500.02, -187500.02, -187500.02, 0.000, 0.000, 0.000, 01:35:14.558
16, -10925.00, -16648.74, -187500.02, -187500.02, -187500.02, -187500.02, -187500.02, -187500.02, 0.000, 0.000, 0.000, 01:35:14.559
17, -10901.73, -16624.18, -187500.02, -187500.02, -187500.02, -187500.02, -187500.02, -187500.02, 0.158, 1.006, -0.080, 01:35:14.559
18, -10922.38, -16640.25, -187500.02, -187500.02, -187500.02, -187500.02, -187500.02, -187500.02, 0.000, 0.000, 0.000, 01:35:14.559
19, -10952.64, -16683.54, -187500.02, -187500.02, -187500.02, -187500.02, -187500.02, -187500.02, 0.000, 0.000, 0.000, 01:35:14.559
20, -10915.85, -16646.89, -187500.02, -187500.02, -187500.02, -187500.02, -187500.02, -187500.02, 0.000, 0.000, 0.000, 01:35:14.559
21, -10906.80, -16625.43, -187500.02, -187500.02, -187500.02, -187500.02, -187500.02, -187500.02, 0.000, 0.000, 0.000, 01:35:14.559
22, -10924.37, -16653.03, -187500.02, -187500.02, -187500.02, -187500.02, -187500.02, -187500.02, 0.000, 0.000, 0.000, 01:35:14.559
23, -10959.26, -16684.44, -187500.02, -187500.02, -187500.02, -187500.02, -187500.02, -187500.02, 0.000, 0.000, 0.000, 01:35:14.559
24, -10935.52, -16647.31, -187500.02, -187500.02, -187500.02, -187500.02, -187500.02, -187500.02, 0.000, 0.000, 0.000, 01:35:14.560
25, -10901.46, -16615.75, -187500.02, -187500.02, -187500.02, -187500.02, -187500.02, -187500.02, 0.000, 0.000, 0.000, 01:35:14.560
26, -10919.83, -16648.45, -187500.02, -187500.02, -187500.02, -187500.02, -187500.02, -187500.02, 0.000, 0.000, 0.000, 01:35:14.560
27, -10960.56, -16694.56, -187500.02, -187500.02, -187500.02, -187500.02, -187500.02, -187500.02, 0.158, 1.004, -0.086, 01:35:14.560
28, -10950.39, -16679.18, -187500.02, -187500.02, -187500.02, -187500.02, -187500.02, -187500.02, 0.000, 0.000, 0.000, 01:35:14.560
29, -10901.93, -16626.79, -187500.02, -187500.02, -187500.02, -187500.02, -187500.02, -187500.02, 0.000, 0.000, 0.000, 01:35:14.560
30, -10915.21, -16639.22, -187500.02, -187500.02, -187500.02, -187500.02, -187500.02, -187500.02, 0.000, 0.000, 0.000, 01:35:14.560
31, -10950.34, -16669.80, -187500.02, -187500.02, -187500.02, -187500.02, -187500.02, -187500.02, 0.000, 0.000, 0.000, 01:35:14.560
32, -10951.19, -16667.65, -187500.02, -187500.02, -187500.02, -187500.02, -187500.02, -187500.02, 0.000, 0.000, 0.000, 01:35:14.561
33, -10907.41, -16622.86, -187500.02, -187500.02, -187500.02, -187500.02, -187500.02, -187500.02, 0.000, 0.000, 0.000, 01:35:14.561
34, -10906.00, -16628.87, -187500.02, -187500.02, -187500.02, -187500.02, -187500.02, -187500.02, 0.000, 0.000, 0.000, 01:35:14.561
35, -10923.99, -16655.31, -187500.02, -187500.02, -187500.02, -187500.02, -187500.02, -187500.02, 0.000, 0.000, 0.000, 01:35:14.561
36, -10944.00, -16676.30, -187500.02, -187500.02, -187500.02, -187500.02, -187500.02, -187500.02, 0.000, 0.000, 0.000, 01:35:14.561
37, -10900.83, -16629.96, -187500.02, -187500.02, -187500.02, -187500.02, -187500.02, -187500.02, 0.154, 1.004, -0.086, 01:35:14.561
38, -10902.76, -16635.75, -187500.02, -187500.02, -187500.02, -187500.02, -187500.02, -187500.02, 0.000, 0.000, 0.000, 01:35:14.561
39, -10941.71, -16674.15, -187500.02, -187500.02, -187500.02, -187500.02, -187500.02, -187500.02, 0.000, 0.000, 0.000, 01:35:14.562
40, -10962.79, -16684.24, -187500.02, -187500.02, -187500.02, -187500.02, -187500.02, -187500.02, 0.000, 0.000, 0.000, 01:35:14.562
41, -10921.60, -16647.27, -187500.02, -187500.02, -187500.02, -187500.02, -187500.02, -187500.02, 0.000, 0.000, 0.000, 01:35:14.562
42, -10903.45, -16631.20, -187500.02, -187500.02, -187500.02, -187500.02, -187500.02, -187500.02, 0.000, 0.000, 0.000, 01:35:14.562
43, -10926.83, -16641.46, -187500.02, -187500.02, -187500.02, -187500.02, -187500.02, -187500.02, 0.000, 0.000, 0.000, 01:35:14.562
44, -10964.38, -16686.63, -187500.02, -187500.02, -187500.02, -187500.02, -187500.02, -187500.02, 0.000, 0.000, 0.000, 01:35:14.562
45, -10931.10, -16664.88, -187500.02, -187500.02, -187500.02, -187500.02, -187500.02, -187500.02, 0.000, 0.000, 0.000, 01:35:14.562
46, -10914.29, -16639.82, -187500.02, -187500.02, -187500.02, -187500.02, -187500.02, -187500.02, 0.000, 0.000, 0.000, 01:35:14.562
47, -10931.32, -16654.60, -187500.02, -187500.02, -187500.02, -187500.02, -187500.02, -187500.02, 0.154, 1.000, -0.080, 01:35:14.563
48, -10966.15, -16681.22, -187500.02, -187500.02, -187500.02, -187500.02, -187500.02, -187500.02, 0.000, 0.000, 0.000, 01:35:14.563
49, -10947.24, -16661.68, -187500.02, -187500.02, -187500.02, -187500.02, -187500.02, -187500.02, 0.000, 0.000, 0.000, 01:35:14.563
50, -10912.88, -16634.26, -187500.02, -187500.02, -187500.02, -187500.02, -187500.02, -187500.02, 0.000, 0.000, 0.000, 01:35:14.563
51, -10917.11, -16644.38, -187500.02, -187500.02, -187500.02, -187500.02, -187500.02, -187500.02, 0.000, 0.000, 0.000, 01:35:14.563
52, -10951.46, -16678.29, -187500.02, -187500.02, -187500.02, -187500.02, -187500.02, -187500.02, 0.000, 0.000, 0.000, 01:35:14.563
53, -10948.76, -16666.02, -187500.02, -187500.02, -187500.02, -187500.02, -187500.02, -187500.02, 0.000, 0.000, 0.000, 01:35:14.563
54, -10909.39, -16631.84, -187500.02, -187500.02, -187500.02, -187500.02, -187500.02, -187500.02, 0.000, 0.000, 0.000, 01:35:14.564
55, -10914.85, -16644.31, -187500.02, -187500.02, -187500.02, -187500.02, -187500.02, -187500.02, 0.000, 0.000, 0.000, 01:35:14.564
56, -10959.22, -16699.17, -187500.02, -187500.02, -187500.02, -187500.02, -187500.02, -187500.02, 0.154, 0.998, -0.088, 01:35:14.564
57, -10972.27, -16701.56, -187500.02, -187500.02, -187500.02, -187500.02, -187500.02, -187500.02, 0.000, 0.000, 0.000, 01:35:14.564
58, -10922.31, -16625.32, -187500.02, -187500.02, -187500.02, -187500.02, -187500.02, -187500.02, 0.000, 0.000, 0.000, 01:35:14.564
59, -10913.51, -16621.23, -187500.02, -187500.02, -187500.02, -187500.02, -187500.02, -187500.02, 0.000, 0.000, 0.000, 01:35:14.564
60, -10945.92, -16657.12, -187500.02, -187500.02, -187500.02, -187500.02, -187500.02, -187500.02, 0.000, 0.000, 0.000, 01:35:14.564
61, -10963.73, -16686.52, -187500.02, -187500.02, -187500.02, -187500.02, -187500.02, -187500.02, 0.000, 0.000, 0.000, 01:35:14.564
62, -10915.67, -16647.71, -187500.02, -187500.02, -187500.02, -187500.02, -187500.02, -187500.02, 0.000, 0.000, 0.000, 01:35:14.565
63, -10897.30, -16629.07, -187500.02, -187500.02, -187500.02, -187500.02, -187500.02, -187500.02, 0.000, 0.000, 0.000, 01:35:14.565
64, -10912.30, -16649.34, -187500.02, -187500.02, -187500.02, -187500.02, -187500.02, -187500.02, 0.000, 0.000, 0.000, 01:35:14.565
65, -10948.42, -16687.23, -187500.02, -187500.02, -187500.02, -187500.02, -187500.02, -187500.02, 0.000, 0.000, 0.000, 01:35:14.565
66, -10920.32, -16661.57, -187500.02, -187500.02, -187500.02, -187500.02, -187500.02, -187500.02, 0.158, 1.000, -0.084, 01:35:14.565
67, -10893.26, -16618.83, -187500.02, -187500.02, -187500.02, -187500.02, -187500.02, -187500.02, 0.000, 0.000, 0.000, 01:35:14.565
68, -10917.58, -16637.34, -187500.02, -187500.02, -187500.02, -187500.02, -187500.02, -187500.02, 0.000, 0.000, 0.000, 01:35:14.565
69, -10954.88, -16682.54, -187500.02, -187500.02, -187500.02, -187500.02, -187500.02, -187500.02, 0.000, 0.000, 0.000, 01:35:14.565
70, -10924.21, -16656.05, -187500.02, -187500.02, -187500.02, -187500.02, -187500.02, -187500.02, 0.000, 0.000, 0.000, 01:35:14.566
71, -10895.83, -16631.31, -187500.02, -187500.02, -187500.02, -187500.02, -187500.02, -187500.02, 0.000, 0.000, 0.000, 01:35:14.566
72, -10922.07, -16647.82, -187500.02, -187500.02, -187500.02, -187500.02, -187500.02, -187500.02, 0.000, 0.000, 0.000, 01:35:14.566
73, -10956.74, -16682.92, -187500.02, -187500.02, -187500.02, -187500.02, -187500.02, -187500.02, 0.000, 0.000, 0.000, 01:35:14.566
74, -10933.04, -16657.01, -187500.02, -187500.02, -187500.02, -187500.02, -187500.02, -187500.02, 0.000, 0.000, 0.000, 01:35:14.566
75, -10892.47, -16617.38, -187500.02, -187500.02, -187500.02, -187500.02, -187500.02, -187500.02, 0.000, 0.000, 0.000, 01:35:14.566
76, -10900.45, -16627.04, -187500.02, -187500.02, -187500.02, -187500.02, -187500.02, -187500.02, 0.156, 1.004, -0.082, 01:35:14.566
77, -10932.53, -16662.31, -187500.02, -187500.02, -187500.02, -187500.02, -187500.02, -187500.02, 0.000, 0.000, 0.000, 01:35:14.567
78, -10935.46, -16672.14, -187500.02, -187500.02, -187500.02, -187500.02, -187500.02, -187500.02, 0.000, 0.000, 0.000, 01:35:14.567
79, -10909.66, -16626.14, -187500.02, -187500.02, -187500.02, -187500.02, -187500.02, -187500.02, 0.000, 0.000, 0.000, 01:35:14.567
80, -10916.17, -16625.21, -187500.02, -187500.02, -187500.02, -187500.02, -187500.02, -187500.02, 0.000, 0.000, 0.000, 01:35:14.567
81, -10941.83, -16648.81, -187500.02, -187500.02, -187500.02, -187500.02, -187500.02, -187500.02, 0.000, 0.000, 0.000, 01:35:14.567
82, -10956.98, -16675.79, -187500.02, -187500.02, -187500.02, -187500.02, -187500.02, -187500.02, 0.000, 0.000, 0.000, 01:35:14.567
83, -10904.28, -16627.28, -187500.02, -187500.02, -187500.02, -187500.02, -187500.02, -187500.02, 0.000, 0.000, 0.000, 01:35:14.567
84, -10902.93, -16628.49, -187500.02, -187500.02, -187500.02, -187500.02, -187500.02, -187500.02, 0.000, 0.000, 0.000, 01:35:14.567
85, -10926.61, -16651.96, -187500.02, -187500.02, -187500.02, -187500.02, -187500.02, -187500.02, 0.000, 0.000, 0.000, 01:35:14.567
86, -10940.11, -16674.22, -187500.02, -187500.02, -187500.02, -187500.02, -187500.02, -187500.02, 0.154, 0.998, -0.074, 01:35:14.568
87, -10897.28, -16626.54, -187500.02, -187500.02, -187500.02, -187500.02, -187500.02, -187500.02, 0.000, 0.000, 0.000, 01:35:14.568
88, -10891.94, -16623.13, -187500.02, -187500.02, -187500.02, -187500.02, -187500.02, -187500.02, 0.000, 0.000, 0.000, 01:35:14.568
89, -10916.73, -16653.19, -187500.02, -187500.02, -187500.02, -187500.02, -187500.02, -187500.02, 0.000, 0.000, 0.000, 01:35:14.568
90, -10954.34, -16675.03, -187500.02, -187500.02, -187500.02, -187500.02, -187500.02, -187500.02, 0.000, 0.000, 0.000, 01:35:15.030
91, -10911.07, -16616.85, -187500.02, -187500.02, -187500.02, -187500.02, -187500.02, -187500.02, 0.000, 0.000, 0.000, 01:35:15.030
92, -10888.38, -16605.45, -187500.02, -187500.02, -187500.02, -187500.02, -187500.02, -187500.02, 0.000, 0.000, 0.000, 01:35:15.031
93, -10906.15, -16620.80, -187500.02, -187500.02, -187500.02, -187500.02, -187500.02, -187500.02, 0.000, 0.000, 0.000, 01:35:15.031
94, -10945.25, -16669.39, -187500.02, -187500.02, -187500.02, -187500.02, -187500.02, -187500.02, 0.000, 0.000, 0.000, 01:35:15.031
95, -10932.68, -16661.57, -187500.02, -187500.02, -187500.02, -187500.02, -187500.02, -187500.02, 0.000, 0.000, 0.000, 01:35:15.031
96, -10900.25, -16607.66, -187500.02, -187500.02, -187500.02, -187500.02, -187500.02, -187500.02, 0.154, 1.008, -0.082, 01:35:15.031
97, -10912.61, -16625.99, -187500.02, -187500.02, -187500.02, -187500.02, -187500.02, -187500.02, 0.000, 0.000, 0.000, 01:35:15.031
98, -10940.22, -16646.51, -187500.02, -187500.02, -187500.02, -187500.02, -187500.02, -187500.02, 0.000, 0.000, 0.000, 01:35:15.031
99, -10925.58, -16634.44, -187500.02, -187500.02, -187500.02, -187500.02, -187500.02, -187500.02, 0.000, 0.000, 0.000, 01:35:15.032
100, -10898.91, -16619.10, -187500.02, -187500.02, -187500.02, -187500.02, -187500.02, -187500.02, 0.000, 0.000, 0.000, 01:35:15.032
101, -10900.10, -16620.09, -187500.02, -187500.02, -187500.02, -187500.02, -187500.02, -187500.02, 0.000, 0.000, 0.000, 01:35:15.032
102, -10939.37, -16654.82, -187500.02, -187500.02, -187500.02, -187500.02, -187500.02, -187500.02, 0.000, 0.000, 0.000, 01:35:15.032
103, -10945.78, -16658.75, -187500.02, -187500.02, -187500.02, -187500.02, -187500.02, -187500.02, 0.000, 0.000, 0.000, 01:35:15.032
104, -10900.07, -16606.61, -187500.02, -187500.02, -187500.02, -187500.02, -187500.02, -187500.02, 0.000, 0.000, 0.000, 01:35:15.032
105, -10893.28, -16592.06, -187500.02, -187500.02, -187500.02, -187500.02, -187500.02, -187500.02, 0.000, 0.000, 0.000, 01:35:15.032
106, -10912.88, -16628.74, -187500.02, -187500.02, -187500.02, -187500.02, -187500.02, -187500.02, 0.154, 1.004, -0.086, 01:35:15.033
107, -10931.46, -16653.55, -187500.02, -187500.02, -187500.02, -187500.02, -187500.02, -187500.02, 0.000, 0.000, 0.000, 01:35:15.033
108, -10899.81, -16619.19, -187500.02, -187500.02, -187500.02, -187500.02, -187500.02, -187500.02, 0.000, 0.000, 0.000, 01:35:15.033
109, -10896.43, -16607.41, -187500.02, -187500.02, -187500.02, -187500.02, -187500.02, -187500.02, 0.000, 0.000, 0.000, 01:35:15.033
110, -10920.91, -16638.08, -187500.02, -187500.02, -187500.02, -187500.02, -187500.02, -187500.02, 0.000, 0.000, 0.000, 01:35:15.033
111, -10944.35, -16670.47, -187500.02, -187500.02, -187500.02, -187500.02, -187500.02, -187500.02, 0.000, 0.000, 0.000, 01:35:15.033
112, -10887.74, -16598.32, -187500.02, -187500.02, -187500.02, -187500.02, -187500.02, -187500.02, 0.000, 0.000, 0.000, 01:35:15.033
113, -10872.98, -16583.07, -187500.02, -187500.02, -187500.02, -187500.02, -187500.02, -187500.02, 0.000, 0.000, 0.000, 01:35:15.033
114, -10905.28, -16618.39, -187500.02, -187500.02, -187500.02, -187500.02, -187500.02, -187500.02, 0.000, 0.000, 0.000, 01:35:15.034
115, -10936.28, -16656.16, -187500.02, -187500.02, -187500.02, -187500.02, -187500.02, -187500.02, 0.000, 0.000, 0.000, 01:35:15.034
116, -10904.77, -16614.77, -187500.02, -187500.02, -187500.02, -187500.02, -187500.02, -187500.02, 0.152, 1.000, -0.082, 01:35:15.034
117, -10893.41, -16597.47, -187500.02, -187500.02, -187500.02, -187500.02, -187500.02, -187500.02, 0.000, 0.000, 0.000, 01:35:15.034
118, -10919.74, -16619.24, -187500.02, -187500.02, -187500.02, -187500.02, -187500.02, -187500.02, 0.000, 0.000, 0.000, 01:35:15.034
119, -10960.47, -16674.11, -187500.02, -187500.02, -187500.02, -187500.02, -187500.02, -187500.02, 0.000, 0.000, 0.000, 01:35:15.034
120, -10937.96, -16647.31, -187500.02, -187500.02, -187500.02, -187500.02, -187500.02, -187500.02, 0.000, 0.000, 0.000, 01:35:15.034
121, -10893.66, -16597.04, -187500.02, -187500.02, -187500.02, -187500.02, -187500.02, -187500.02, 0.000, 0.000, 0.000, 01:35:15.034
122, -10912.25, -16610.77, -187500.02, -187500.02, -187500.02, -187500.02, -187500.02, -187500.02, 0.000, 0.000, 0.000, 01:35:15.035
123, -10953.43, -16655.31, -187500.02, -187500.02, -187500.02, -187500.02, -187500.02, -187500.02, 0.000, 0.000, 0.000, 01:35:15.035
124, -10938.32, -16651.98, -187500.02, -187500.02, -187500.02, -187500.02, -187500.02, -187500.02, 0.000, 0.000, 0.000, 01:35:15.035
125, -10896.36, -16600.57, -187500.02, -187500.02, -187500.02, -187500.02, -187500.02, -187500.02, 0.158, 0.998, -0.088, 01:35:15.035
126, -10908.39, -16610.03, -187500.02, -187500.02, -187500.02, -187500.02, -187500.02, -187500.02, 0.000, 0.000, 0.000, 01:35:15.035
127, -10943.59, -16648.03, -187500.02, -187500.02, -187500.02, -187500.02, -187500.02, -187500.02, 0.000, 0.000, 0.000, 01:35:15.035
128, -10941.29, -16642.24, -187500.02, -187500.02, -187500.02, -187500.02, -187500.02, -187500.02, 0.000, 0.000, 0.000, 01:35:15.035
129, -10896.68, -16601.58, -187500.02, -187500.02, -187500.02, -187500.02, -187500.02, -187500.02, 0.000, 0.000, 0.000, 01:35:15.035
130, -10913.33, -16625.99, -187500.02, -187500.02, -187500.02, -187500.02, -187500.02, -187500.02, 0.000, 0.000, 0.000, 01:35:15.035
131, -10944.82, -16653.39, -187500.02, -187500.02, -187500.02, -187500.02, -187500.02, -187500.02, 0.000, 0.000, 0.000, 01:35:15.036
132, -10959.53, -16669.64, -187500.02, -187500.02, -187500.02, -187500.02, -187500.02, -187500.02, 0.000, 0.000, 0.000, 01:35:15.036
133, -10924.24, -16637.83, -187500.02, -187500.02, -187500.02, -187500.02, -187500.02, -187500.02, 0.000, 0.000, 0.000, 01:35:15.036
134, -10920.93, -16621.36, -187500.02, -187500.02, -187500.02, -187500.02, -187500.02, -187500.02, 0.000, 0.000, 0.000, 01:35:15.036
135, -10924.84, -16629.23, -187500.02, -187500.02, -187500.02, -187500.02, -187500.02, -187500.02, 0.154, 0.998, -0.084, 01:35:15.036
136, -10949.96, -16664.16, -187500.02, -187500.02, -187500.02, -187500.02, -187500.02, -187500.02, 0.000, 0.000, 0.000, 01:35:15.036
137, -10916.95, -16626.14, -187500.02, -187500.02, -187500.02, -187500.02, -187500.02, -187500.02, 0.000, 0.000, 0.000, 01:35:15.036
138, -10899.07, -16603.81, -187500.02, -187500.02, -187500.02, -187500.02, -187500.02, -187500.02, 0.000, 0.000, 0.000, 01:35:15.036
139, -10924.66, -16627.57, -187500.02, -187500.02, -187500.02, -187500.02, -187500.02, -187500.02, 0.000, 0.000, 0.000, 01:35:15.036
140, -10972.74, -16683.95, -187500.02, -187500.02, -187500.02, -187500.02, -187500.02, -187500.02, 0.000, 0.000, 0.000, 01:35:15.037
141, -10930.81, -16652.03, -187500.02, -187500.02, -187500.02, -187500.02, -187500.02, -187500.02, 0.000, 0.000, 0.000, 01:35:15.037
142, -10902.29, -16614.50, -187500.02, -187500.02, -187500.02, -187500.02, -187500.02, -187500.02, 0.000, 0.000, 0.000, 01:35:15.037
143, -10918.18, -16622.41, -187500.02, -187500.02, -187500.02, -187500.02, -187500.02, -187500.02, 0.000, 0.000, 0.000, 01:35:15.037
144, -10962.79, -16659.38, -187500.02, -187500.02, -187500.02, -187500.02, -187500.02, -187500.02, 0.000, 0.000, 0.000, 01:35:15.037
145, -10929.69, -16639.76, -187500.02, -187500.02, -187500.02, -187500.02, -187500.02, -187500.02, 0.154, 1.006, -0.086, 01:35:15.037
146, -10909.28, -16623.75, -187500.02, -187500.02, -187500.02, -187500.02, -187500.02, -187500.02, 0.000, 0.000, 0.000, 01:35:15.037
147, -10922.65, -16626.26, -187500.02, -187500.02, -187500.02, -187500.02, -187500.02, -187500.02, 0.000, 0.000, 0.000, 01:35:15.037
148, -10960.89, -16662.31, -187500.02, -187500.02, -187500.02, -187500.02, -187500.02, -187500.02, 0.000, 0.000, 0.000, 01:35:15.037
149, -10959.98, -16662.64, -187500.02, -187500.02, -187500.02, -187500.02, -187500.02, -187500.02, 0.000, 0.000, 0.000, 01:35:15.038
150, -10919.32, -16618.39, -187500.02, -187500.02, -187500.02, -187500.02, -187500.02, -187500.02, 0.000, 0.000, 0.000, 01:35:15.038
151, -10920.93, -16620.29, -187500.02, -187500.02, -187500.02, -187500.02, -187500.02, -187500.02, 0.000, 0.000, 0.000, 01:35:15.038
152, -10956.65, -16655.54, -187500.02, -187500.02, -187500.02, -187500.02, -187500.02, -187500.02, 0.000, 0.000, 0.000, 01:35:15.038
153, -10955.62, -16666.27, -187500.02, -187500.02, -187500.02, -187500.02, -187500.02, -187500.02, 0.000, 0.000, 0.000, 01:35:15.038
154, -10898.58, -16623.60, -187500.02, -187500.02, -187500.02, -187500.02, -187500.02, -187500.02, 0.000, 0.000, 0.000, 01:35:15.038
155, -10901.62, -16612.17, -187500.02, -187500.02, -187500.02, -187500.02, -187500.02, -187500.02, 0.152, 1.006, -0.090, 01:35:15.038
156, -10929.60, -16637.34, -187500.02, -187500.02, -187500.02, -187500.02, -187500.02, -187500.02, 0.000, 0.000, 0.000, 01:35:15.038
157, -10941.74, -16643.98, -187500.02, -187500.02, -187500.02, -187500.02, -187500.02, -187500.02, 0.000, 0.000, 0.000, 01:35:15.038
158, -10900.34, -16610.23, -187500.02, -187500.02, -187500.02, -187500.02, -187500.02, -187500.02, 0.000, 0.000, 0.000, 01:35:15.038
159, -10909.08, -16616.02, -187500.02, -187500.02, -187500.02, -187500.02, -187500.02, -187500.02, 0.000, 0.000, 0.000, 01:35:15.039
160, -10940.06, -16634.64, -187500.02, -187500.02, -187500.02, -187500.02, -187500.02, -187500.02, 0.000, 0.000, 0.000, 01:35:15.039
161, -10964.00, -16664.14, -187500.02, -187500.02, -187500.02, -187500.02, -187500.02, -187500.02, 0.000, 0.000, 0.000, 01:35:15.039
162, -10928.30, -16640.78, -187500.02, -187500.02, -187500.02, -187500.02, -187500.02, -187500.02, 0.000, 0.000, 0.000, 01:35:15.039
163, -10911.32, -16621.85, -187500.02, -187500.02, -187500.02, -187500.02, -187500.02, -187500.02, 0.000, 0.000, 0.000, 01:35:15.039
164, -10935.01, -16633.81, -187500.02, -187500.02, -187500.02, -187500.02, -187500.02, -187500.02, 0.000, 0.000, 0.000, 01:35:15.039
165, -10958.12, -16655.78, -187500.02, -187500.02, -187500.02, -187500.02, -187500.02, -187500.02, 0.154, 1.002, -0.080, 01:35:15.039
166, -10928.35, -16630.30, -187500.02, -187500.02, -187500.02, -187500.02, -187500.02, -187500.02, 0.000, 0.000, 0.000, 01:35:15.039
167, -10907.67, -16616.11, -187500.02, -187500.02, -187500.02, -187500.02, -187500.02, -187500.02, 0.000, 0.000, 0.000, 01:35:15.040
168, -10908.90, -16625.29, -187500.02, -187500.02, -187500.02, -187500.02, -187500.02, -187500.02, 0.000, 0.000, 0.000, 01:35:15.040
169, -10951.48, -16657.95, -187500.02, -187500.02, -187500.02, -187500.02, -187500.02, -187500.02, 0.000, 0.000, 0.000, 01:35:15.040
170, -10936.69, -16646.62, -187500.02, -187500.02, -187500.02, -187500.02, -187500.02, -187500.02, 0.000, 0.000, 0.000, 01:35:15.040
171, -10911.03, -16622.79, -187500.02, -187500.02, -187500.02, -187500.02, -187500.02, -187500.02, 0.000, 0.000, 0.000, 01:35:15.040
172, -10911.72, -16615.71, -187500.02, -187500.02, -187500.02, -187500.02, -187500.02, -187500.02, 0.000, 0.000, 0.000, 01:35:15.040
173, -10934.90, -16639.55, -187500.02, -187500.02, -187500.02, -187500.02, -187500.02, -187500.02, 0.000, 0.000, 0.000, 01:35:15.040
174, -10934.99, -16649.12, -187500.02, -187500.02, -187500.02, -187500.02, -187500.02, -187500.02, 0.000, 0.000, 0.000, 01:35:15.040
175, -10907.29, -16623.10, -187500.02, -187500.02, -187500.02, -187500.02, -187500.02, -187500.02, 0.158, 1.004, -0.084, 01:35:15.040
176, -10924.08, -16637.21, -187500.02, -187500.02, -187500.02, -187500.02, -187500.02, -187500.02, 0.000, 0.000, 0.000, 01:35:15.040
177, -10947.66, -16674.24, -187500.02, -187500.02, -187500.02, -187500.02, -187500.02, -187500.02, 0.000, 0.000, 0.000, 01:35:15.041
178, -10948.42, -16672.57, -187500.02, -187500.02, -187500.02, -187500.02, -187500.02, -187500.02, 0.000, 0.000, 0.000, 01:35:15.041
179, -10911.50, -16622.12, -187500.02, -187500.02, -187500.02, -187500.02, -187500.02, -187500.02, 0.000, 0.000, 0.000, 01:35:15.041
180, -10905.39, -16610.72, -187500.02, -187500.02, -187500.02, -187500.02, -187500.02, -187500.02, 0.000, 0.000, 0.000, 01:35:15.041
181, -10927.16, -16638.86, -187500.02, -187500.02, -187500.02, -187500.02, -187500.02, -187500.02, 0.000, 0.000, 0.000, 01:35:15.041
182, -10956.22, -16677.37, -187500.02, -187500.02, -187500.02, -187500.02, -187500.02, -187500.02, 0.000, 0.000, 0.000, 01:35:15.041
183, -10915.16, -16627.91, -187500.02, -187500.02, -187500.02, -187500.02, -187500.02, -187500.02, 0.000, 0.000, 0.000, 01:35:15.041
184, -10908.75, -16617.94, -187500.02, -187500.02, -187500.02, -187500.02, -187500.02, -187500.02, 0.158, 1.004, -0.082, 01:35:15.041
185, -10928.77, -16636.04, -187500.02, -187500.02, -187500.02, -187500.02, -187500.02, -187500.02, 0.000, 0.000, 0.000, 01:35:15.041
186, -10948.82, -16651.69, -187500.02, -187500.02, -187500.02, -187500.02, -187500.02, -187500.02, 0.000, 0.000, 0.000, 01:35:15.042
187, -10931.39, -16639.24, -187500.02, -187500.02, -187500.02, -187500.02, -187500.02, -187500.02, 0.000, 0.000, 0.000, 01:35:15.042
188, -10901.91, -16608.02, -187500.02, -187500.02, -187500.02, -187500.02, -187500.02, -187500.02, 0.000, 0.000, 0.000, 01:35:15.042
189, -10912.10, -16621.58, -187500.02, -187500.02, -187500.02, -187500.02, -187500.02, -187500.02, 0.000, 0.000, 0.000, 01:35:15.042
190, -10955.35, -16669.17, -187500.02, -187500.02, -187500.02, -187500.02, -187500.02, -187500.02, 0.000, 0.000, 0.000, 01:35:15.042
191, -10926.34, -16650.30, -187500.02, -187500.02, -187500.02, -187500.02, -187500.02, -187500.02, 0.000, 0.000, 0.000, 01:35:15.042
192, -10900.03, -16624.80, -187500.02, -187500.02, -187500.02, -187500.02, -187500.02, -187500.02, 0.000, 0.000, 0.000, 01:35:15.042
193, -10908.21, -16630.75, -187500.02, -187500.02, -187500.02, -187500.02, -187500.02, -187500.02, 0.000, 0.000, 0.000, 01:35:15.042
194, -10945.13, -16657.77, -187500.02, -187500.02, -187500.02, -187500.02, -187500.02, -187500.02, 0.158, 1.004, -0.082, 01:35:15.042
195, -10932.33, -16653.86, -187500.02, -187500.02, -187500.02, -187500.02, -187500.02, -187500.02, 0.000, 0.000, 0.000, 01:35:15.043
196, -10891.47, -16617.02, -187500.02, -187500.02, -187500.02, -187500.02, -187500.02, -187500.02, 0.000, 0.000, 0.000, 01:35:15.043
197, -10909.37, -16618.07, -187500.02, -187500.02, -187500.02, -187500.02, -187500.02, -187500.02, 0.000, 0.000, 0.000, 01:35:15.043
198, -10943.91, -16660.43, -187500.02, -187500.02, -187500.02, -187500.02, -187500.02, -187500.02, 0.000, 0.000, 0.000, 01:35:15.043
199, -10927.30, -16653.95, -187500.02, -187500.02, -187500.02, -187500.02, -187500.02, -187500.02, 0.000, 0.000, 0.000, 01:35:15.043
200, -10882.64, -16603.28, -187500.02, -187500.02, -187500.02, -187500.02, -187500.02, -187500.02, 0.000, 0.000, 0.000, 01:35:15.043
201, -10890.73, -16602.23, -187500.02, -187500.02, -187500.02, -187500.02, -187500.02, -187500.02, 0.000, 0.000, 0.000, 01:35:15.043
202, -10926.58, -16644.38, -187500.02, -187500.02, -187500.02, -187500.02, -187500.02, -187500.02, 0.000, 0.000, 0.000, 01:35:15.043
203, -10936.64, -16662.33, -187500.02, -187500.02, -187500.02, -187500.02, -187500.02, -187500.02, 0.000, 0.000, 0.000, 01:35:15.044
204, -10914.45, -16611.84, -187500.02, -187500.02, -187500.02, -187500.02, -187500.02, -187500.02, 0.150, 1.000, -0.084, 01:35:15.044
205, -10900.99, -16612.13, -187500.02, -187500.02, -187500.02, -187500.02, -187500.02, -187500.02, 0.000, 0.000, 0.000, 01:35:15.044
206, -10922.02, -16640.94, -187500.02, -187500.02, -187500.02, -187500.02, -187500.02, -187500.02, 0.000, 0.000, 0.000, 01:35:15.044
207, -10950.70, -16669.06, -187500.02, -187500.02, -187500.02, -187500.02, -187500.02, -187500.02, 0.000, 0.000, 0.000, 01:35:15.044
208, -10908.75, -16630.32, -187500.02, -187500.02, -187500.02, -187500.02, -187500.02, -187500.02, 0.000, 0.000, 0.000, 01:35:15.044
209, -10896.45, -16620.62, -187500.02, -187500.02, -187500.02, -187500.02, -187500.02, -187500.02, 0.000, 0.000, 0.000, 01:35:15.044
210, -10926.90, -16649.95, -187500.02, -187500.02, -187500.02, -187500.02, -187500.02, -187500.02, 0.000, 0.000, 0.000, 01:35:15.510
211, -10958.48, -16664.61, -187500.02, -187500.02, -187500.02, -187500.02, -187500.02, -187500.02, 0.000, 0.000, 0.000, 01:35:15.510
212, -10918.11, -16622.68, -187500.02, -187500.02, -187500.02, -187500.02, -187500.02, -187500.02, 0.000, 0.000, 0.000, 01:35:15.510
213, -10891.54, -16600.80, -187500.02, -187500.02, -187500.02, -187500.02, -187500.02, -187500.02, 0.000, 0.000, 0.000, 01:35:15.510
214, -10917.71, -16627.39, -187500.02, -187500.02, -187500.02, -187500.02, -187500.02, -187500.02, 0.158, 1.002, -0.084, 01:35:15.510
215, -10945.85, -16663.92, -187500.02, -187500.02, -187500.02, -187500.02, -187500.02, -187500.02, 0.000, 0.000, 0.000, 01:35:15.510
216, -10930.99, -16648.07, -187500.02, -187500.02, -187500.02, -187500.02, -187500.02, -187500.02, 0.000, 0.000, 0.000, 01:35:15.511
217, -10907.29, -16621.90, -187500.02, -187500.02, -187500.02, -187500.02, -187500.02, -187500.02, 0.000, 0.000, 0.000, 01:35:15.511
218, -10924.10, -16645.03, -187500.02, -187500.02, -187500.02, -187500.02, -187500.02, -187500.02, 0.000, 0.000, 0.000, 01:35:15.511
219, -10960.60, -16673.64, -187500.02, -187500.02, -187500.02, -187500.02, -187500.02, -187500.02, 0.000, 0.000, 0.000, 01:35:15.511
220, -10944.20, -16653.21, -187500.02, -187500.02, -187500.02, -187500.02, -187500.02, -187500.02, 0.000, 0.000, 0.000, 01:35:15.511
221, -10899.98, -16608.33, -187500.02, -187500.02, -187500.02, -187500.02, -187500.02, -187500.02, 0.000, 0.000, 0.000, 01:35:15.511
222, -10923.99, -16626.32, -187500.02, -187500.02, -187500.02, -187500.02, -187500.02, -187500.02, 0.000, 0.000, 0.000, 01:35:15.511
223, -10947.93, -16655.40, -187500.02, -187500.02, -187500.02, -187500.02, -187500.02, -187500.02, 0.000, 0.000, 0.000, 01:35:15.511
224, -10928.21, -16653.44, -187500.02, -187500.02, -187500.02, -187500.02, -187500.02, -187500.02, 0.162, 1.000, -0.088, 01:35:15.512
225, -10881.21, -16616.51, -187500.02, -187500.02, -187500.02, -187500.02, -187500.02, -187500.02, 0.000, 0.000, 0.000, 01:35:15.512
226, -10893.97, -16614.86, -187500.02, -187500.02, -187500.02, -187500.02, -187500.02, -187500.02, 0.000, 0.000, 0.000, 01:35:15.512
227, -10929.80, -16638.35, -187500.02, -187500.02, -187500.02, -187500.02, -187500.02, -187500.02, 0.000, 0.000, 0.000, 01:35:15.512
228, -10937.76, -16644.83, -187500.02, -187500.02, -187500.02, -187500.02, -187500.02, -187500.02, 0.000, 0.000, 0.000, 01:35:15.512
229, -10901.73, -16621.76, -187500.02, -187500.02, -187500.02, -187500.02, -187500.02, -187500.02, 0.000, 0.000, 0.000, 01:35:15.512
230, -10902.87, -16635.78, -187500.02, -187500.02, -187500.02, -187500.02, -187500.02, -187500.02, 0.000, 0.000, 0.000, 01:35:15.512
231, -10939.46, -16670.15, -187500.02, -187500.02, -187500.02, -187500.02, -187500.02, -187500.02, 0.000, 0.000, 0.000, 01:35:15.513
232, -10959.40, -16677.51, -187500.02, -187500.02, -187500.02, -187500.02, -187500.02, -187500.02, 0.000, 0.000, 0.000, 01:35:15.513
233, -10908.52, -16619.66, -187500.02, -187500.02, -187500.02, -187500.02, -187500.02, -187500.02, 0.000, 0.000, 0.000, 01:35:15.513
234, -10900.70, -16620.40, -187500.02, -187500.02, -187500.02, -187500.02, -187500.02, -187500.02, 0.162, 0.998, -0.084, 01:35:15.513
235, -10928.30, -16642.37, -187500.02, -187500.02, -187500.02, -187500.02, -187500.02, -187500.02, 0.000, 0.000, 0.000, 01:35:15.513
236, -10967.60, -16677.13, -187500.02, -187500.02, -187500.02, -187500.02, -187500.02, -187500.02, 0.000, 0.000, 0.000, 01:35:15.513
237, -10935.34, -16649.17, -187500.02, -187500.02, -187500.02, -187500.02, -187500.02, -187500.02, 0.000, 0.000, 0.000, 01:35:15.513
238, -10907.85, -16626.43, -187500.02, -187500.02, -187500.02, -187500.02, -187500.02, -187500.02, 0.000, 0.000, 0.000, 01:35:15.514
239, -10923.57, -16661.79, -187500.02, -187500.02, -187500.02, -187500.02, -187500.02, -187500.02, 0.000, 0.000, 0.000, 01:35:15.514
240, -10953.92, -16688.59, -187500.02, -187500.02, -187500.02, -187500.02, -187500.02, -187500.02, 0.000, 0.000, 0.000, 01:35:15.514
241, -10925.73, -16644.05, -187500.02, -187500.02, -187500.02, -187500.02, -187500.02, -187500.02, 0.000, 0.000, 0.000, 01:35:15.514
242, -10892.88, -16597.58, -187500.02, -187500.02, -187500.02, -187500.02, -187500.02, -187500.02, 0.000, 0.000, 0.000, 01:35:15.514
243, -10910.24, -16624.94, -187500.02, -187500.02, -187500.02, -187500.02, -187500.02, -187500.02, 0.158, 0.998, -0.082, 01:35:15.514
244, -10950.48, -16669.44, -187500.02, -187500.02, -187500.02, -187500.02, -187500.02, -187500.02, 0.000, 0.000, 0.000, 01:35:15.514
245, -10942.92, -16670.94, -187500.02, -187500.02, -187500.02, -187500.02, -187500.02, -187500.02, 0.000, 0.000, 0.000, 01:35:15.514
246, -10917.89, -16627.78, -187500.02, -187500.02, -187500.02, -187500.02, -187500.02, -187500.02, 0.000, 0.000, 0.000, 01:35:15.514
247, -10933.76, -16649.50, -187500.02, -187500.02, -187500.02, -187500.02, -187500.02, -187500.02, 0.000, 0.000, 0.000, 01:35:15.515
248, -10963.66, -16694.72, -187500.02, -187500.02, -187500.02, -187500.02, -187500.02, -187500.02, 0.000, 0.000, 0.000, 01:35:15.515
249, -10977.50, -16708.15, -187500.02, -187500.02, -187500.02, -187500.02, -187500.02, -187500.02, 0.000, 0.000, 0.000, 01:35:15.515
250, -10953.27, -16681.49, -187500.02, -187500.02, -187500.02, -187500.02, -187500.02, -187500.02, 0.000, 0.000, 0.000, 01:35:15.515
251, -10954.77, -16682.27, -187500.02, -187500.02, -187500.02, -187500.02, -187500.02, -187500.02, 0.000, 0.000, 0.000, 01:35:15.515
252, -10985.68, -16699.81, -187500.02, -187500.02, -187500.02, -187500.02, -187500.02, -187500.02, 0.000, 0.000, 0.000, 01:35:15.515
253, -10999.11, -16709.63, -187500.02, -187500.02, -187500.02, -187500.02, -187500.02, -187500.02, 0.158, 1.000, -0.084, 01:35:15.515
254, -10960.22, -16685.29, -187500.02, -187500.02, -187500.02, -187500.02, -187500.02, -187500.02, 0.000, 0.000, 0.000, 01:35:15.515
255, -10954.19, -16678.02, -187500.02, -187500.02, -187500.02, -187500.02, -187500.02, -187500.02, 0.000, 0.000, 0.000, 01:35:15.515
0, -10975.76, -16707.41, -187500.02, -187500.02, -187500.02, -187500.02, -187500.02, -187500.02, 0.000, 0.000, 0.000, 01:35:15.516
1, -11000.54, -16726.64, -187500.02, -187500.02, -187500.02, -187500.02, -187500.02, -187500.02, 0.000, 0.000, 0.000, 01:35:15.516
2, -10953.85, -16679.92, -187500.02, -187500.02, -187500.02, -187500.02, -187500.02, -187500.02, 0.000, 0.000, 0.000, 01:35:15.516
3, -10937.89, -16668.68, -187500.02, -187500.02, -187500.02, -187500.02, -187500.02, -187500.02, 0.000, 0.000, 0.000, 01:35:15.516
4, -10939.93, -16663.09, -187500.02, -187500.02, -187500.02, -187500.02, -187500.02, -187500.02, 0.000, 0.000, 0.000, 01:35:15.516
5, -10976.09, -16689.62, -187500.02, -187500.02, -187500.02, -187500.02, -187500.02, -187500.02, 0.000, 0.000, 0.000, 01:35:15.516
6, -10938.81, -16650.44, -187500.02, -187500.02, -187500.02, -187500.02, -187500.02, -187500.02, 0.000, 0.000, 0.000, 01:35:15.516
7, -10919.56, -16636.45, -187500.02, -187500.02, -187500.02, -187500.02, -187500.02, -187500.02, 0.154, 1.000, -0.082, 01:35:15.516
8, -10917.73, -16647.51, -187500.02, -187500.02, -187500.02, -187500.02, -187500.02, -187500.02, 0.000, 0.000, 0.000, 01:35:15.517
9, -10940.66, -16672.63, -187500.02, -187500.02, -187500.02, -187500.02, -187500.02, -187500.02, 0.000, 0.000, 0.000, 01:35:15.517
10, -10939.68, -16670.13, -187500.02, -187500.02, -187500.02, -187500.02, -187500.02, -187500.02, 0.000, 0.000, 0.000, 01:35:15.517
11, -10919.97, -16656.81, -187500.02, -187500.02, -187500.02, -187500.02, -187500.02, -187500.02, 0.000, 0.000, 0.000, 01:35:15.517
12, -10908.70, -16655.78, -187500.02, -187500.02, -187500.02, -187500.02, -187500.02, -187500.02, 0.000, 0.000, 0.000, 01:35:15.517
13, -10928.26, -16666.27, -187500.02, -187500.02, -187500.02, -187500.02, -187500.02, -187500.02, 0.000, 0.000, 0.000, 01:35:15.517
14, -10920.08, -16662.80, -187500.02, -187500.02, -187500.02, -187500.02, -187500.02, -187500.02, 0.000, 0.000, 0.000, 01:35:15.517
15, -10886.91, -16640.67, -187500.02, -187500.02, -187500.02, -187500.02, -187500.02, -187500.02, 0.000, 0.000, 0.000, 01:35:15.517
16, -10895.87, -16648.90, -187500.02, -187500.02, -187500.02, -187500.02, -187500.02, -187500.02, 0.000, 0.000, 0.000, 01:35:15.517
17, -10909.15, -16652.25, -187500.02, -187500.02, -187500.02, -187500.02, -187500.02, -187500.02, 0.156, 1.002, -0.078, 01:35:15.518
18, -10920.57, -16655.18, -187500.02, -187500.02, -187500.02, -187500.02, -187500.02, -187500.02, 0.000, 0.000, 0.000, 01:35:15.518
19, -10888.96, -16632.33, -187500.02, -187500.02, -187500.02, -187500.02, -187500.02, -187500.02, 0.000, 0.000, 0.000, 01:35:15.518
20, -10894.08, -16638.46, -187500.02, -187500.02, -187500.02, -187500.02, -187500.02, -187500.02, 0.000, 0.000, 0.000, 01:35:15.518
21, -10923.39, -16672.77, -187500.02, -187500.02, -187500.02, -187500.02, -187500.02, -187500.02, 0.000, 0.000, 0.000, 01:35:15.518
22, -10954.12, -16680.84, -187500.02, -187500.02, -187500.02, -187500.02, -187500.02, -187500.02, 0.000, 0.000, 0.000, 01:35:15.518
23, -10919.61, -16645.95, -187500.02, -187500.02, -187500.02, -187500.02, -187500.02, -187500.02, 0.000, 0.000, 0.000, 01:35:15.518
24, -10919.74, -16648.03, -187500.02, -187500.02, -187500.02, -187500.02, -187500.02, -187500.02, 0.000, 0.000, 0.000, 01:35:15.518
25, -10938.03, -16674.60, -187500.02, -187500.02, -187500.02, -187500.02, -187500.02, -187500.02, 0.000, 0.000, 0.000, 01:35:15.518
26, -10953.38, -16694.23, -187500.02, -187500.02, -187500.02, -187500.02, -187500.02, -187500.02, 0.000, 0.000, 0.000, 01:35:15.518
27, -10906.44, -16642.97, -187500.02, -187500.02, -187500.02, -187500.02, -187500.02, -187500.02, 0.156, 1.000, -0.088, 01:35:15.519
28, -10887.18, -16611.39, -187500.02, -187500.02, -187500.02, -187500.02, -187500.02, -187500.02, 0.000, 0.000, 0.000, 01:35:15.519
29, -10898.31, -16628.71, -187500.02, -187500.02, -187500.02, -187500.02, -187500.02, -187500.02, 0.000, 0.000, 0.000, 01:35:15.519
30, -10937.92, -16687.41, -187500.02, -187500.02, -187500.02, -187500.02, -187500.02, -187500.02, 0.000, 0.000, 0.000, 01:35:15.519
31, -10910.80, -16646.84, -187500.02, -187500.02, -187500.02, -187500.02, -187500.02, -187500.02, 0.000, 0.000, 0.000, 01:35:15.519
32, -10884.16, -16606.99, -187500.02, -187500.02, -187500.02, -187500.02, -187500.02, -187500.02, 0.000, 0.000, 0.000, 01:35:15.519
33, -10892.92, -16618.50, -187500.02, -187500.02, -187500.02, -187500.02, -187500.02, -187500.02, 0.000, 0.000, 0.000, 01:35:15.519
34, -10940.82, -16668.63, -187500.02, -187500.02, -187500.02, -187500.02, -187500.02, -187500.02, 0.000, 0.000, 0.000, 01:35:15.519
35, -10931.05, -16658.33, -187500.02, -187500.02, -187500.02, -187500.02, -187500.02, -187500.02, 0.000, 0.000, 0.000, 01:35:15.520
36, -10888.14, -16617.98, -187500.02, -187500.02, -187500.02, -187500.02, -187500.02, -187500.02, 0.000, 0.000, 0.000, 01:35:15.520
37, -10915.56, -16649.57, -187500.02, -187500.02, -187500.02, -187500.02, -187500.02, -187500.02, 0.152, 1.000, -0.084, 01:35:15.520
38, -10945.02, -16677.66, -187500.02, -187500.02, -187500.02, -187500.02, -187500.02, -187500.02, 0.000, 0.000, 0.000, 01:35:15.520
39, -10931.23, -16681.93, -187500.02, -187500.02, -187500.02, -187500.02, -187500.02, -187500.02, 0.000, 0.000, 0.000, 01:35:15.520
40, -10891.94, -16648.45, -187500.02, -187500.02, -187500.02, -187500.02, -187500.02, -187500.02, 0.000, 0.000, 0.000, 01:35:15.520
41, -10900.77, -16636.16, -187500.02, -187500.02, -187500.02, -187500.02, -187500.02, -187500.02, 0.000, 0.000, 0.000, 01:35:15.520
42, -10925.26, -16654.26, -187500.02, -187500.02, -187500.02, -187500.02, -187500.02, -187500.02, 0.000, 0.000, 0.000, 01:35:15.520
43, -10950.99, -16677.78, -187500.02, -187500.02, -187500.02, -187500.02, -187500.02, -187500.02, 0.000, 0.000, 0.000, 01:35:15.521
44, -10908.28, -16637.10, -187500.02, -187500.02, -187500.02, -187500.02, -187500.02, -187500.02, 0.000, 0.000, 0.000, 01:35:15.521
45, -10896.39, -16637.50, -187500.02, -187500.02, -187500.02, -187500.02, -187500.02, -187500.02, 0.000, 0.000, 0.000, 01:35:15.521
46, -10930.16, -16668.52, -187500.02, -187500.02, -187500.02, -187500.02, -187500.02, -187500.02, 0.154, 0.998, -0.082, 01:35:15.521
47, -10957.29, -16686.81, -187500.02, -187500.02, -187500.02, -187500.02, -187500.02, -187500.02, 0.000, 0.000, 0.000, 01:35:15.521
48, -10918.13, -16636.22, -187500.02, -187500.02, -187500.02, -187500.02, -187500.02, -187500.02, 0.000, 0.000, 0.000, 01:35:15.521
49, -10894.31, -16619.62, -187500.02, -187500.02, -187500.02, -187500.02, -187500.02, -187500.02, 0.000, 0.000, 0.000, 01:35:15.521
50, -10919.07, -16653.55, -187500.02, -187500.02, -187500.02, -187500.02, -187500.02, -187500.02, 0.000, 0.000, 0.000, 01:35:15.521
51, -10952.26, -16689.58, -187500.02, -187500.02, -187500.02, -187500.02, -187500.02, -187500.02, 0.000, 0.000, 0.000, 01:35:15.522
52, -10910.29, -16646.17, -187500.02, -187500.02, -187500.02, -187500.02, -187500.02, -187500.02, 0.000, 0.000, 0.000, 01:35:15.522
53, -10893.84, -16616.20, -187500.02, -187500.02, -187500.02, -187500.02, -187500.02, -187500.02, 0.000, 0.000, 0.000, 01:35:15.522
54, -10913.40, -16637.74, -187500.02, -187500.02, -187500.02, -187500.02, -187500.02, -187500.02, 0.000, 0.000, 0.000, 01:35:15.522
55, -10956.62, -16686.27, -187500.02, -187500.02, -187500.02, -187500.02, -187500.02, -187500.02, 0.000, 0.000, 0.000, 01:35:15.522
56, -10918.74, -16656.14, -187500.02, -187500.02, -187500.02, -187500.02, -187500.02, -187500.02, 0.148, 1.004, -0.084, 01:35:15.522
57, -10891.85, -16628.27, -187500.02, -187500.02, -187500.02, -187500.02, -187500.02, -187500.02, 0.000, 0.000, 0.000, 01:35:15.522
58, -10903.63, -16646.62, -187500.02, -187500.02, -187500.02, -187500.02, -187500.02, -187500.02, 0.000, 0.000, 0.000, 01:35:15.523
59, -10937.42, -16679.86, -187500.02, -187500.02, -187500.02, -187500.02, -187500.02, -187500.02, 0.000, 0.000, 0.000, 01:35:15.523
60, -10935.81, -16686.74, -187500.02, -187500.02, -187500.02, -187500.02, -187500.02, -187500.02, 0.000, 0.000, 0.000, 01:35:15.523
61, -10889.32, -16630.41, -187500.02, -187500.02, -187500.02, -187500.02, -187500.02, -187500.02, 0.000, 0.000, 0.000, 01:35:15.523
62, -10886.06, -16636.20, -187500.02, -187500.02, -187500.02, -187500.02, -187500.02, -187500.02, 0.000, 0.000, 0.000, 01:35:15.523
63, -10939.99, -16681.53, -187500.02, -187500.02, -187500.02, -187500.02, -187500.02, -187500.02, 0.000, 0.000, 0.000, 01:35:15.523
64, -10938.47, -16664.66, -187500.02, -187500.02, -187500.02, -187500.02, -187500.02, -187500.02, 0.000, 0.000, 0.000, 01:35:15.523
65, -10888.23, -16617.40, -187500.02, -187500.02, -187500.02, -187500.02, -187500.02, -187500.02, 0.000, 0.000, 0.000, 01:35:15.523
66, -10890.53, -16622.59, -187500.02, -187500.02, -187500.02, -187500.02, -187500.02, -187500.02, 0.152, 1.004, -0.088, 01:35:15.524
67, -10921.58, -16660.01, -187500.02, -187500.02, -187500.02, -187500.02, -187500.02, -187500.02, 0.000, 0.000, 0.000, 01:35:15.524
68, -10927.19, -16667.79, -187500.02, -187500.02, -187500.02, -187500.02, -187500.02, -187500.02, 0.000, 0.000, 0.000, 01:35:15.524
69, -10877.86, -16613.45, -187500.02, -187500.02, -187500.02, -187500.02, -187500.02, -187500.02, 0.000, 0.000, 0.000, 01:35:15.524
70, -10879.55, -16612.60, -187500.02, -187500.02, -187500.02, -187500.02, -187500.02, -187500.02, 0.000, 0.000, 0.000, 01:35:15.524
71, -10904.50, -16636.54, -187500.02, -187500.02, -187500.02, -187500.02, -187500.02, -187500.02, 0.000, 0.000, 0.000, 01:35:15.524
72, -10934.18, -16673.71, -187500.02, -187500.02, -187500.02, -187500.02, -187500.02, -187500.02, 0.000, 0.000, 0.000, 01:35:15.524
73, -10883.80, -16619.88, -187500.02, -187500.02, -187500.02, -187500.02, -187500.02, -187500.02, 0.000, 0.000, 0.000, 01:35:15.524
74, -10877.14, -16611.77, -187500.02, -187500.02, -187500.02, -187500.02, -187500.02, -187500.02, 0.000, 0.000, 0.000, 01:35:15.991
75, -10894.06, -16626.84, -187500.02, -187500.02, -187500.02, -187500.02, -187500.02, -187500.02, 0.000, 0.000, 0.000, 01:35:15.991
76, -10914.60, -16643.38, -187500.02, -187500.02, -187500.02, -187500.02, -187500.02, -187500.02, 0.154, 1.002, -0.080, 01:35:15.991
77, -10883.73, -16619.08, -187500.02, -187500.02, -187500.02, -187500.02, -187500.02, -187500.02, 0.000, 0.000, 0.000, 01:35:15.991
78, -10876.25, -16598.90, -187500.02, -187500.02, -187500.02, -187500.02, -187500.02, -187500.02, 0.000, 0.000, 0.000, 01:35:15.991
79, -10894.15, -16625.05, -187500.02, -187500.02, -187500.02, -187500.02, -187500.02, -187500.02, 0.000, 0.000, 0.000, 01:35:15.991
80, -10930.05, -16650.71, -187500.02, -187500.02, -187500.02, -187500.02, -187500.02, -187500.02, 0.000, 0.000, 0.000, 01:35:15.991
81, -10898.71, -16620.89, -187500.02, -187500.02, -187500.02, -187500.02, -187500.02, -187500.02, 0.000, 0.000, 0.000, 01:35:15.991
82, -10876.27, -16599.34, -187500.02, -187500.02, -187500.02, -187500.02, -187500.02, -187500.02, 0.000, 0.000, 0.000, 01:35:15.992
83, -10898.08, -16604.73, -187500.02, -187500.02, -187500.02, -187500.02, -187500.02, -187500.02, 0.000, 0.000, 0.000, 01:35:15.992
84, -10934.90, -16654.11, -187500.02, -187500.02, -187500.02, -187500.02, -187500.02, -187500.02, 0.000, 0.000, 0.000, 01:35:15.992
85, -10918.09, -16640.81, -187500.02, -187500.02, -187500.02, -187500.02, -187500.02, -187500.02, 0.000, 0.000, 0.000, 01:35:15.992
86, -10880.54, -16593.89, -187500.02, -187500.02, -187500.02, -187500.02, -187500.02, -187500.02, 0.158, 1.002, -0.084, 01:35:15.992
87, -10881.41, -16600.66, -187500.02, -187500.02, -187500.02, -187500.02, -187500.02, -187500.02, 0.000, 0.000, 0.000, 01:35:15.992
88, -10914.04, -16643.38, -187500.02, -187500.02, -187500.02, -187500.02, -187500.02, -187500.02, 0.000, 0.000, 0.000, 01:35:15.992
89, -10909.13, -16638.82, -187500.02, -187500.02, -187500.02, -187500.02, -187500.02, -187500.02, 0.000, 0.000, 0.000, 01:35:15.992
90, -10860.51, -16585.15, -187500.02, -187500.02, -187500.02, -187500.02, -187500.02, -187500.02, 0.000, 0.000, 0.000, 01:35:15.993
91, -10876.38, -16588.39, -187500.02, -187500.02, -187500.02, -187500.02, -187500.02, -187500.02, 0.000, 0.000, 0.000, 01:35:15.993
92, -10928.01, -16643.15, -187500.02, -187500.02, -187500.02, -187500.02, -187500.02, -187500.02, 0.000, 0.000, 0.000, 01:35:15.993
93, -10928.80, -16655.54, -187500.02, -187500.02, -187500.02, -187500.02, -187500.02, -187500.02, 0.000, 0.000, 0.000, 01:35:15.993
94, -10883.69, -16597.91, -187500.02, -187500.02, -187500.02, -187500.02, -187500.02, -187500.02, 0.000, 0.000, 0.000, 01:35:15.993
95, -10884.14, -16600.84, -187500.02, -187500.02, -187500.02, -187500.02, -187500.02, -187500.02, 0.000, 0.000, 0.000, 01:35:15.993
96, -10912.25, -16629.61, -187500.02, -187500.02, -187500.02, -187500.02, -187500.02, -187500.02, 0.154, 1.004, -0.080, 01:35:15.993
97, -10934.50, -16650.95, -187500.02, -187500.02, -187500.02, -187500.02, -187500.02, -187500.02, 0.000, 0.000, 0.000, 01:35:15.994
98, -10889.19, -16599.32, -187500.02, -187500.02, -187500.02, -187500.02, -187500.02, -187500.02, 0.000, 0.000, 0.000, 01:35:15.994
99, -10883.27, -16590.58, -187500.02, -187500.02, -187500.02, -187500.02, -187500.02, -187500.02, 0.000, 0.000, 0.000, 01:35:15.994
100, -10902.87, -16612.80, -187500.02, -187500.02, -187500.02, -187500.02, -187500.02, -187500.02, 0.000, 0.000, 0.000, 01:35:15.994
101, -10940.55, -16643.47, -187500.02, -187500.02, -187500.02, -187500.02, -187500.02, -187500.02, 0.000, 0.000, 0.000, 01:35:15.994
102, -10898.87, -16610.16, -187500.02, -187500.02, -187500.02, -187500.02, -187500.02, -187500.02, 0.000, 0.000, 0.000, 01:35:15.994
103, -10872.04, -16581.44, -187500.02, -187500.02, -187500.02, -187500.02, -187500.02, -187500.02, 0.000, 0.000, 0.000, 01:35:15.995
104, -10889.01, -16596.82, -187500.02, -187500.02, -187500.02, -187500.02, -187500.02, -187500.02, 0.000, 0.000, 0.000, 01:35:15.995
105, -10933.11, -16648.27, -187500.02, -187500.02, -187500.02, -187500.02, -187500.02, -187500.02, 0.000, 0.000, 0.000, 01:35:15.995
106, -10903.90, -16622.21, -187500.02, -187500.02, -187500.02, -187500.02, -187500.02, -187500.02, 0.156, 1.004, -0.086, 01:35:15.995
107, -10879.71, -16596.01, -187500.02, -187500.02, -187500.02, -187500.02, -187500.02, -187500.02, 0.000, 0.000, 0.000, 01:35:15.995
108, -10907.00, -16610.10, -187500.02, -187500.02, -187500.02, -187500.02, -187500.02, -187500.02, 0.000, 0.000, 0.000, 01:35:15.995
109, -10947.97, -16650.06, -187500.02, -187500.02, -187500.02, -187500.02, -187500.02, -187500.02, 0.000, 0.000, 0.000, 01:35:15.995
110, -10937.40, -16641.68, -187500.02, -187500.02, -187500.02, -187500.02, -187500.02, -187500.02, 0.000, 0.000, 0.000, 01:35:15.995
111, -10889.97, -16602.14, -187500.02, -187500.02, -187500.02, -187500.02, -187500.02, -187500.02, 0.000, 0.000, 0.000, 01:35:15.996
112, -10884.00, -16595.14, -187500.02, -187500.02, -187500.02, -187500.02, -187500.02, -187500.02, 0.000, 0.000, 0.000, 01:35:15.996
113, -10901.15, -16612.64, -187500.02, -187500.02, -187500.02, -187500.02, -187500.02, -187500.02, 0.000, 0.000, 0.000, 01:35:15.996
114, -10926.67, -16652.09, -187500.02, -187500.02, -187500.02, -187500.02, -187500.02, -187500.02, 0.000, 0.000, 0.000, 01:35:15.996
115, -10889.66, -16606.32, -187500.02, -187500.02, -187500.02, -187500.02, -187500.02, -187500.02, 0.158, 1.010, -0.082, 01:35:15.996
116, -10885.95, -16597.49, -187500.02, -187500.02, -187500.02, -187500.02, -187500.02, -187500.02, 0.000, 0.000, 0.000, 01:35:15.996
117, -10925.17, -16647.31, -187500.02, -187500.02, -187500.02, -187500.02, -187500.02, -187500.02, 0.000, 0.000, 0.000, 01:35:15.997
118, -10943.62, -16663.92, -187500.02, -187500.02, -187500.02, -187500.02, -187500.02, -187500.02, 0.000, 0.000, 0.000, 01:35:15.997
119, -10903.81, -16613.45, -187500.02, -187500.02, -187500.02, -187500.02, -187500.02, -187500.02, 0.000, 0.000, 0.000, 01:35:15.997
120, -10890.55, -16591.95, -187500.02, -187500.02, -187500.02, -187500.02, -187500.02, -187500.02, 0.000, 0.000, 0.000, 01:35:15.997
121, -10920.66, -16628.74, -187500.02, -187500.02, -187500.02, -187500.02, -187500.02, -187500.02, 0.000, 0.000, 0.000, 01:35:15.997
122, -10959.10, -16676.05, -187500.02, -187500.02, -187500.02, -187500.02, -187500.02, -187500.02, 0.000, 0.000, 0.000, 01:35:15.997
123, -10909.19, -16631.71, -187500.02, -187500.02, -187500.02, -187500.02, -187500.02, -187500.02, 0.000, 0.000, 0.000, 01:35:15.997
124, -10880.27, -16590.78, -187500.02, -187500.02, -187500.02, -187500.02, -187500.02, -187500.02, 0.000, 0.000, 0.000, 01:35:15.998
125, -10905.13, -16613.43, -187500.02, -187500.02, -187500.02, -187500.02, -187500.02, -187500.02, 0.154, 1.002, -0.076, 01:35:15.998
126, -10938.38, -16648.41, -187500.02, -187500.02, -187500.02, -187500.02, -187500.02, -187500.02, 0.000, 0.000, 0.000, 01:35:15.998
127, -10885.50, -16595.10, -187500.02, -187500.02, -187500.02, -187500.02, -187500.02, -187500.02, 0.000, 0.000, 0.000, 01:35:15.998
128, -10863.68, -16576.93, -187500.02, -187500.02, -187500.02, -187500.02, -187500.02, -187500.02, 0.000, 0.000, 0.000, 01:35:15.998
129, -10889.90, -16611.50, -187500.02, -187500.02, -187500.02, -187500.02, -187500.02, -187500.02, 0.000, 0.000, 0.000, 01:35:15.998
130, -10934.18, -16642.97, -187500.02, -187500.02, -187500.02, -187500.02, -187500.02, -187500.02, 0.000, 0.000, 0.000, 01:35:15.998
131, -10919.88, -16616.71, -187500.02, -187500.02, -187500.02, -187500.02, -187500.02, -187500.02, 0.000, 0.000, 0.000, 01:35:15.999
132, -10886.01, -16586.29, -187500.02, -187500.02, -187500.02, -187500.02, -187500.02, -187500.02, 0.000, 0.000, 0.000, 01:35:15.999
133, -10897.50, -16605.07, -187500.02, -187500.02, -187500.02, -187500.02, -187500.02, -187500.02, 0.000, 0.000, 0.000, 01:35:15.999
134, -10942.39, -16643.89, -187500.02, -187500.02, -187500.02, -187500.02, -187500.02, -187500.02, 0.000, 0.000, 0.000, 01:35:15.999
