%OpenBCI Raw EEG Data
%
%Sample Rate = 250.0 Hz
%First Column = SampleIndex
%Last Column = Timestamp 
%Other Columns = EEG data in microvolts followed by Accel Data (in G) interleaved with Aux Data
0, 0.00, 0.00, 0.00, 0.00, 0.00, 0.00, 0.00, 0.00, 0.216, 0.996, -0.076, 02:40:09.138
1, 29722.10, 8351.42, -187500.02, -187500.02, -187500.02, -187500.02, -187500.02, -187500.02, 0.000, 0.000, 0.000, 02:40:09.622
2, 29754.15, 8358.68, -187500.02, -187500.02, -187500.02, -187500.02, -187500.02, -187500.02, 0.000, 0.000, 0.000, 02:40:09.622
3, 29776.12, 8390.60, -187500.02, -187500.02, -187500.02, -187500.02, -187500.02, -187500.02, 0.000, 0.000, 0.000, 02:40:09.623
4, 29762.49, 8380.45, -187500.02, -187500.02, -187500.02, -187500.02, -187500.02, -187500.02, 0.000, 0.000, 0.000, 02:40:09.623
5, 29737.90, 8376.41, -187500.02, -187500.02, -187500.02, -187500.02, -187500.02, -187500.02, 0.000, 0.000, 0.000, 02:40:09.623
6, 29757.68, 8373.90, -187500.02, -187500.02, -187500.02, -187500.02, -187500.02, -187500.02, 0.000, 0.000, 0.000, 02:40:09.623
7, 29778.00, 8390.87, -187500.02, -187500.02, -187500.02, -187500.02, -187500.02, -187500.02, 0.000, 0.000, 0.000, 02:40:09.623
8, 29763.00, 8404.08, -187500.02, -187500.02, -187500.02, -187500.02, -187500.02, -187500.02, 0.220, 0.992, -0.076, 02:40:09.623
9, 29724.09, 8379.31, -187500.02, -187500.02, -187500.02, -187500.02, -187500.02, -187500.02, 0.000, 0.000, 0.000, 02:40:09.623
10, 29749.70, 8358.46, -187500.02, -187500.02, -187500.02, -187500.02, -187500.02, -187500.02, 0.000, 0.000, 0.000, 02:40:09.623
11, 29798.23, 8401.69, -187500.02, -187500.02, -187500.02, -187500.02, -187500.02, -187500.02, 0.000, 0.000, 0.000, 02:40:09.624
12, 29803.70, 8415.95, -187500.02, -187500.02, -187500.02, -187500.02, -187500.02, -187500.02, 0.000, 0.000, 0.000, 02:40:09.624
13, 29768.92, 8394.29, -187500.02, -187500.02, -187500.02, -187500.02, -187500.02, -187500.02, 0.000, 0.000, 0.000, 02:40:09.624
14, 29757.28, 8377.95, -187500.02, -187500.02, -187500.02, -187500.02, -187500.02, -187500.02, 0.000, 0.000, 0.000, 02:40:09.624
15, 29783.83, 8380.65, -187500.02, -187500.02, -187500.02, -187500.02, -187500.02, -187500.02, 0.000, 0.000, 0.000, 02:40:09.624
16, 29781.64, 8394.38, -187500.02, -187500.02, -187500.02, -187500.02, -187500.02, -187500.02, 0.000, 0.000, 0.000, 02:40:09.624
17, 29760.81, 8381.37, -187500.02, -187500.02, -187500.02, -187500.02, -187500.02, -187500.02, 0.218, 0.992, -0.080, 02:40:09.624
18, 29752.65, 8343.97, -187500.02, -187500.02, -187500.02, -187500.02, -187500.02, -187500.02, 0.000, 0.000, 0.000, 02:40:09.624
19, 29777.22, 8354.52, -187500.02, -187500.02, -187500.02, -187500.02, -187500.02, -187500.02, 0.000, 0.000, 0.000, 02:40:09.625
20, 29771.49, 8382.57, -187500.02, -187500.02, -187500.02, -187500.02, -187500.02, -187500.02, 0.000, 0.000, 0.000, 02:40:09.625
21, 29752.99, 8391.96, -187500.02, -187500.02, -187500.02, -187500.02, -187500.02, -187500.02, 0.000, 0.000, 0.000, 02:40:09.625
22, 29731.84, 8364.27, -187500.02, -187500.02, -187500.02, -187500.02, -187500.02, -187500.02, 0.000, 0.000, 0.000, 02:40:09.625
23, 29766.51, 8374.13, -187500.02, -187500.02, -187500.02, -187500.02, -187500.02, -187500.02, 0.000, 0.000, 0.000, 02:40:09.625
24, 29778.29, 8382.73, -187500.02, -187500.02, -187500.02, -187500.02, -187500.02, -187500.02, 0.000, 0.000, 0.000, 02:40:09.625
25, 29750.97, 8354.72, -187500.02, -187500.02, -187500.02, -187500.02, -187500.02, -187500.02, 0.000, 0.000, 0.000, 02:40:09.625
26, 29736.54, 8322.02, -187500.02, -187500.02, -187500.02, -187500.02, -187500.02, -187500.02, 0.000, 0.000, 0.000, 02:40:09.625
27, 29769.82, 8344.15, -187500.02, -187500.02, -187500.02, -187500.02, -187500.02, -187500.02, 0.216, 0.992, -0.080, 02:40:09.626
28, 29775.56, 8385.46, -187500.02, -187500.02, -187500.02, -187500.02, -187500.02, -187500.02, 0.000, 0.000, 0.000, 02:40:09.626
29, 29756.68, 8385.88, -187500.02, -187500.02, -187500.02, -187500.02, -187500.02, -187500.02, 0.000, 0.000, 0.000, 02:40:09.626
30, 29731.31, 8349.14, -187500.02, -187500.02, -187500.02, -187500.02, -187500.02, -187500.02, 0.000, 0.000, 0.000, 02:40:09.626
31, 29755.11, 8364.56, -187500.02, -187500.02, -187500.02, -187500.02, -187500.02, -187500.02, 0.000, 0.000, 0.000, 02:40:09.626
32, 29768.83, 8375.15, -187500.02, -187500.02, -187500.02, -187500.02, -187500.02, -187500.02, 0.000, 0.000, 0.000, 02:40:09.626
33, 29762.33, 8371.15, -187500.02, -187500.02, -187500.02, -187500.02, -187500.02, -187500.02, 0.000, 0.000, 0.000, 02:40:09.626
34, 29741.14, 8343.50, -187500.02, -187500.02, -187500.02, -187500.02, -187500.02, -187500.02, 0.000, 0.000, 0.000, 02:40:09.626
35, 29753.88, 8354.05, -187500.02, -187500.02, -187500.02, -187500.02, -187500.02, -187500.02, 0.000, 0.000, 0.000, 02:40:09.627
36, 29776.10, 8381.17, -187500.02, -187500.02, -187500.02, -187500.02, -187500.02, -187500.02, 0.000, 0.000, 0.000, 02:40:09.627
37, 29764.39, 8381.75, -187500.02, -187500.02, -187500.02, -187500.02, -187500.02, -187500.02, 0.216, 0.988, -0.082, 02:40:09.627
38, 29755.49, 8361.79, -187500.02, -187500.02, -187500.02, -187500.02, -187500.02, -187500.02, 0.000, 0.000, 0.000, 02:40:09.627
39, 29748.52, 8357.12, -187500.02, -187500.02, -187500.02, -187500.02, -187500.02, -187500.02, 0.000, 0.000, 0.000, 02:40:09.627
40, 29768.30, 8365.16, -187500.02, -187500.02, -187500.02, -187500.02, -187500.02, -187500.02, 0.000, 0.000, 0.000, 02:40:09.627
41, 29765.21, 8355.35, -187500.02, -187500.02, -187500.02, -187500.02, -187500.02, -187500.02, 0.000, 0.000, 0.000, 02:40:09.627
42, 29746.39, 8337.83, -187500.02, -187500.02, -187500.02, -187500.02, -187500.02, -187500.02, 0.000, 0.000, 0.000, 02:40:09.628
43, 29742.19, 8337.94, -187500.02, -187500.02, -187500.02, -187500.02, -187500.02, -187500.02, 0.000, 0.000, 0.000, 02:40:09.628
44, 29774.22, 8356.33, -187500.02, -187500.02, -187500.02, -187500.02, -187500.02, -187500.02, 0.000, 0.000, 0.000, 02:40:09.628
45, 29758.13, 8354.70, -187500.02, -187500.02, -187500.02, -187500.02, -187500.02, -187500.02, 0.000, 0.000, 0.000, 02:40:09.628
46, 29747.09, 8359.06, -187500.02, -187500.02, -187500.02, -187500.02, -187500.02, -187500.02, 0.000, 0.000, 0.000, 02:40:09.628
47, 29737.14, 8367.26, -187500.02, -187500.02, -187500.02, -187500.02, -187500.02, -187500.02, 0.216, 0.990, -0.078, 02:40:09.628
48, 29758.42, 8368.45, -187500.02, -187500.02, -187500.02, -187500.02, -187500.02, -187500.02, 0.000, 0.000, 0.000, 02:40:09.628
49, 29774.13, 8368.58, -187500.02, -187500.02, -187500.02, -187500.02, -187500.02, -187500.02, 0.000, 0.000, 0.000, 02:40:09.629
50, 29750.97, 8347.66, -187500.02, -187500.02, -187500.02, -187500.02, -187500.02, -187500.02, 0.000, 0.000, 0.000, 02:40:09.629
51, 29723.37, 8314.11, -187500.02, -187500.02, -187500.02, -187500.02, -187500.02, -187500.02, 0.000, 0.000, 0.000, 02:40:09.629
52, 29750.10, 8354.77, -187500.02, -187500.02, -187500.02, -187500.02, -187500.02, -187500.02, 0.000, 0.000, 0.000, 02:40:09.629
53, 29773.10, 8378.93, -187500.02, -187500.02, -187500.02, -187500.02, -187500.02, -187500.02, 0.000, 0.000, 0.000, 02:40:09.629
54, 29757.64, 8373.59, -187500.02, -187500.02, -187500.02, -187500.02, -187500.02, -187500.02, 0.000, 0.000, 0.000, 02:40:09.629
55, 29731.57, 8341.38, -187500.02, -187500.02, -187500.02, -187500.02, -187500.02, -187500.02, 0.000, 0.000, 0.000, 02:40:09.629
56, 29750.57, 8341.49, -187500.02, -187500.02, -187500.02, -187500.02, -187500.02, -187500.02, 0.000, 0.000, 0.000, 02:40:09.630
57, 29778.31, 8360.94, -187500.02, -187500.02, -187500.02, -187500.02, -187500.02, -187500.02, 0.214, 0.992, -0.084, 02:40:09.630
58, 29762.75, 8367.06, -187500.02, -187500.02, -187500.02, -187500.02, -187500.02, -187500.02, 0.000, 0.000, 0.000, 02:40:09.630
59, 29741.77, 8338.52, -187500.02, -187500.02, -187500.02, -187500.02, -187500.02, -187500.02, 0.000, 0.000, 0.000, 02:40:09.630
60, 29747.58, 8348.47, -187500.02, -187500.02, -187500.02, -187500.02, -187500.02, -187500.02, 0.000, 0.000, 0.000, 02:40:09.631
61, 29760.86, 8358.12, -187500.02, -187500.02, -187500.02, -187500.02, -187500.02, -187500.02, 0.000, 0.000, 0.000, 02:40:09.631
62, 29769.01, 8357.94, -187500.02, -187500.02, -187500.02, -187500.02, -187500.02, -187500.02, 0.000, 0.000, 0.000, 02:40:09.631
63, 29748.40, 8350.46, -187500.02, -187500.02, -187500.02, -187500.02, -187500.02, -187500.02, 0.000, 0.000, 0.000, 02:40:09.631
64, 29747.15, 8310.51, -187500.02, -187500.02, -187500.02, -187500.02, -187500.02, -187500.02, 0.000, 0.000, 0.000, 02:40:09.639
65, 29769.08, 8341.76, -187500.02, -187500.02, -187500.02, -187500.02, -187500.02, -187500.02, 0.000, 0.000, 0.000, 02:40:09.639
66, 29759.85, 8372.72, -187500.02, -187500.02, -187500.02, -187500.02, -187500.02, -187500.02, 0.000, 0.000, 0.000, 02:40:09.639
67, 29752.45, 8341.34, -187500.02, -187500.02, -187500.02, -187500.02, -187500.02, -187500.02, 0.212, 0.996, -0.086, 02:40:09.639
68, 29748.00, 8337.67, -187500.02, -187500.02, -187500.02, -187500.02, -187500.02, -187500.02, 0.000, 0.000, 0.000, 02:40:09.639
69, 29753.79, 8331.10, -187500.02, -187500.02, -187500.02, -187500.02, -187500.02, -187500.02, 0.000, 0.000, 0.000, 02:40:09.639
70, 29763.89, 8337.51, -187500.02, -187500.02, -187500.02, -187500.02, -187500.02, -187500.02, 0.000, 0.000, 0.000, 02:40:09.639
71, 29737.95, 8351.59, -187500.02, -187500.02, -187500.02, -187500.02, -187500.02, -187500.02, 0.000, 0.000, 0.000, 02:40:09.640
72, 29732.58, 8329.65, -187500.02, -187500.02, -187500.02, -187500.02, -187500.02, -187500.02, 0.000, 0.000, 0.000, 02:40:09.640
73, 29758.64, 8345.92, -187500.02, -187500.02, -187500.02, -187500.02, -187500.02, -187500.02, 0.000, 0.000, 0.000, 02:40:09.640
74, 29772.48, 8377.59, -187500.02, -187500.02, -187500.02, -187500.02, -187500.02, -187500.02, 0.000, 0.000, 0.000, 02:40:09.640
75, 29757.68, 8348.11, -187500.02, -187500.02, -187500.02, -187500.02, -187500.02, -187500.02, 0.000, 0.000, 0.000, 02:40:09.640
76, 29738.01, 8328.21, -187500.02, -187500.02, -187500.02, -187500.02, -187500.02, -187500.02, 0.214, 0.990, -0.086, 02:40:09.640
77, 29753.59, 8342.01, -187500.02, -187500.02, -187500.02, -187500.02, -187500.02, -187500.02, 0.000, 0.000, 0.000, 02:40:09.640
78, 29766.40, 8358.79, -187500.02, -187500.02, -187500.02, -187500.02, -187500.02, -187500.02, 0.000, 0.000, 0.000, 02:40:09.640
79, 29759.34, 8353.88, -187500.02, -187500.02, -187500.02, -187500.02, -187500.02, -187500.02, 0.000, 0.000, 0.000, 02:40:09.640
80, 29736.94, 8334.76, -187500.02, -187500.02, -187500.02, -187500.02, -187500.02, -187500.02, 0.000, 0.000, 0.000, 02:40:09.641
81, 29752.76, 8347.10, -187500.02, -187500.02, -187500.02, -187500.02, -187500.02, -187500.02, 0.000, 0.000, 0.000, 02:40:09.641
82, 29774.15, 8365.59, -187500.02, -187500.02, -187500.02, -187500.02, -187500.02, -187500.02, 0.000, 0.000, 0.000, 02:40:09.641
83, 29762.60, 8344.15, -187500.02, -187500.02, -187500.02, -187500.02, -187500.02, -187500.02, 0.000, 0.000, 0.000, 02:40:09.641
84, 29745.99, 8348.73, -187500.02, -187500.02, -187500.02, -187500.02, -187500.02, -187500.02, 0.000, 0.000, 0.000, 02:40:09.641
85, 29754.06, 8361.54, -187500.02, -187500.02, -187500.02, -187500.02, -187500.02, -187500.02, 0.000, 0.000, 0.000, 02:40:09.641
86, 29781.89, 8378.62, -187500.02, -187500.02, -187500.02, -187500.02, -187500.02, -187500.02, 0.222, 0.994, -0.084, 02:40:09.641
87, 29778.00, 8377.37, -187500.02, -187500.02, -187500.02, -187500.02, -187500.02, -187500.02, 0.000, 0.000, 0.000, 02:40:09.641
88, 29750.06, 8358.26, -187500.02, -187500.02, -187500.02, -187500.02, -187500.02, -187500.02, 0.000, 0.000, 0.000, 02:40:09.642
89, 29752.36, 8365.43, -187500.02, -187500.02, -187500.02, -187500.02, -187500.02, -187500.02, 0.000, 0.000, 0.000, 02:40:09.642
90, 29768.95, 8382.13, -187500.02, -187500.02, -187500.02, -187500.02, -187500.02, -187500.02, 0.000, 0.000, 0.000, 02:40:09.642
91, 29777.75, 8396.72, -187500.02, -187500.02, -187500.02, -187500.02, -187500.02, -187500.02, 0.000, 0.000, 0.000, 02:40:09.642
92, 29754.17, 8385.37, -187500.02, -187500.02, -187500.02, -187500.02, -187500.02, -187500.02, 0.000, 0.000, 0.000, 02:40:09.642
93, 29733.70, 8368.07, -187500.02, -187500.02, -187500.02, -187500.02, -187500.02, -187500.02, 0.000, 0.000, 0.000, 02:40:09.642
94, 29759.29, 8386.78, -187500.02, -187500.02, -187500.02, -187500.02, -187500.02, -187500.02, 0.000, 0.000, 0.000, 02:40:09.642
95, 29755.94, 8402.76, -187500.02, -187500.02, -187500.02, -187500.02, -187500.02, -187500.02, 0.000, 0.000, 0.000, 02:40:09.642
96, 29739.82, 8398.76, -187500.02, -187500.02, -187500.02, -187500.02, -187500.02, -187500.02, 0.226, 1.008, -0.086, 02:40:09.642
97, 29730.55, 8377.08, -187500.02, -187500.02, -187500.02, -187500.02, -187500.02, -187500.02, 0.000, 0.000, 0.000, 02:40:09.643
98, 29761.01, 8391.90, -187500.02, -187500.02, -187500.02, -187500.02, -187500.02, -187500.02, 0.000, 0.000, 0.000, 02:40:09.643
99, 29762.51, 8389.24, -187500.02, -187500.02, -187500.02, -187500.02, -187500.02, -187500.02, 0.000, 0.000, 0.000, 02:40:09.643
100, 29749.10, 8393.73, -187500.02, -187500.02, -187500.02, -187500.02, -187500.02, -187500.02, 0.000, 0.000, 0.000, 02:40:09.643
101, 29730.48, 8390.96, -187500.02, -187500.02, -187500.02, -187500.02, -187500.02, -187500.02, 0.000, 0.000, 0.000, 02:40:09.643
102, 29750.62, 8398.60, -187500.02, -187500.02, -187500.02, -187500.02, -187500.02, -187500.02, 0.000, 0.000, 0.000, 02:40:09.643
103, 29756.34, 8396.46, -187500.02, -187500.02, -187500.02, -187500.02, -187500.02, -187500.02, 0.000, 0.000, 0.000, 02:40:09.643
104, 29743.87, 8353.47, -187500.02, -187500.02, -187500.02, -187500.02, -187500.02, -187500.02, 0.000, 0.000, 0.000, 02:40:09.643
105, 29720.96, 8345.90, -187500.02, -187500.02, -187500.02, -187500.02, -187500.02, -187500.02, 0.000, 0.000, 0.000, 02:40:09.643
106, 29745.34, 8372.99, -187500.02, -187500.02, -187500.02, -187500.02, -187500.02, -187500.02, 0.228, 1.008, -0.082, 02:40:09.643
107, 29753.72, 8384.90, -187500.02, -187500.02, -187500.02, -187500.02, -187500.02, -187500.02, 0.000, 0.000, 0.000, 02:40:09.644
108, 29743.20, 8387.67, -187500.02, -187500.02, -187500.02, -187500.02, -187500.02, -187500.02, 0.000, 0.000, 0.000, 02:40:09.644
109, 29731.71, 8368.38, -187500.02, -187500.02, -187500.02, -187500.02, -187500.02, -187500.02, 0.000, 0.000, 0.000, 02:40:09.644
110, 29757.88, 8353.76, -187500.02, -187500.02, -187500.02, -187500.02, -187500.02, -187500.02, 0.000, 0.000, 0.000, 02:40:09.644
111, 29788.24, 8398.87, -187500.02, -187500.02, -187500.02, -187500.02, -187500.02, -187500.02, 0.000, 0.000, 0.000, 02:40:09.644
112, 29767.43, 8400.43, -187500.02, -187500.02, -187500.02, -187500.02, -187500.02, -187500.02, 0.000, 0.000, 0.000, 02:40:09.644
113, 29733.72, 8372.87, -187500.02, -187500.02, -187500.02, -187500.02, -187500.02, -187500.02, 0.000, 0.000, 0.000, 02:40:09.645
114, 29717.98, 8378.13, -187500.02, -187500.02, -187500.02, -187500.02, -187500.02, -187500.02, 0.000, 0.000, 0.000, 02:40:09.645
115, 29759.25, 8375.49, -187500.02, -187500.02, -187500.02, -187500.02, -187500.02, -187500.02, 0.000, 0.000, 0.000, 02:40:09.645
116, 29753.41, 8407.41, -187500.02, -187500.02, -187500.02, -187500.02, -187500.02, -187500.02, 0.222, 0.998, -0.082, 02:40:09.645
117, 29728.62, 8385.35, -187500.02, -187500.02, -187500.02, -187500.02, -187500.02, -187500.02, 0.000, 0.000, 0.000, 02:40:09.645
118, 29723.08, 8336.19, -187500.02, -187500.02, -187500.02, -187500.02, -187500.02, -187500.02, 0.000, 0.000, 0.000, 02:40:09.645
119, 29758.42, 8382.15, -187500.02, -187500.02, -187500.02, -187500.02, -187500.02, -187500.02, 0.000, 0.000, 0.000, 02:40:09.645
120, 29769.08, 8409.02, -187500.02, -187500.02, -187500.02, -187500.02, -187500.02, -187500.02, 0.000, 0.000, 0.000, 02:40:09.645
121, 29752.92, 8399.61, -187500.02, -187500.02, -187500.02, -187500.02, -187500.02, -187500.02, 0.000, 0.000, 0.000, 02:40:10.102
122, 29724.89, 8373.34, -187500.02, -187500.02, -187500.02, -187500.02, -187500.02, -187500.02, 0.000, 0.000, 0.000, 02:40:10.102
123, 29753.57, 8376.56, -187500.02, -187500.02, -187500.02, -187500.02, -187500.02, -187500.02, 0.000, 0.000, 0.000, 02:40:10.103
124, 29771.72, 8383.16, -187500.02, -187500.02, -187500.02, -187500.02, -187500.02, -187500.02, 0.000, 0.000, 0.000, 02:40:10.103
125, 29749.48, 8399.54, -187500.02, -187500.02, -187500.02, -187500.02, -187500.02, -187500.02, 0.000, 0.000, 0.000, 02:40:10.103
126, 29731.13, 8396.05, -187500.02, -187500.02, -187500.02, -187500.02, -187500.02, -187500.02, 0.222, 0.986, -0.086, 02:40:10.103
127, 29763.69, 8399.52, -187500.02, -187500.02, -187500.02, -187500.02, -187500.02, -187500.02, 0.000, 0.000, 0.000, 02:40:10.103
128, 29789.55, 8418.23, -187500.02, -187500.02, -187500.02, -187500.02, -187500.02, -187500.02, 0.000, 0.000, 0.000, 02:40:10.103
129, 29782.27, 8407.23, -187500.02, -187500.02, -187500.02, -187500.02, -187500.02, -187500.02, 0.000, 0.000, 0.000, 02:40:10.103
130, 29745.43, 8347.91, -187500.02, -187500.02, -187500.02, -187500.02, -187500.02, -187500.02, 0.000, 0.000, 0.000, 02:40:10.103
131, 29761.93, 8351.08, -187500.02, -187500.02, -187500.02, -187500.02, -187500.02, -187500.02, 0.000, 0.000, 0.000, 02:40:10.104
132, 29771.52, 8416.39, -187500.02, -187500.02, -187500.02, -187500.02, -187500.02, -187500.02, 0.000, 0.000, 0.000, 02:40:10.104
133, 29761.77, 8415.97, -187500.02, -187500.02, -187500.02, -187500.02, -187500.02, -187500.02, 0.000, 0.000, 0.000, 02:40:10.104
134, 29741.61, 8407.81, -187500.02, -187500.02, -187500.02, -187500.02, -187500.02, -187500.02, 0.000, 0.000, 0.000, 02:40:10.104
135, 29749.63, 8405.57, -187500.02, -187500.02, -187500.02, -187500.02, -187500.02, -187500.02, 0.222, 0.994, -0.092, 02:40:10.104
136, 29778.58, 8433.58, -187500.02, -187500.02, -187500.02, -187500.02, -187500.02, -187500.02, 0.000, 0.000, 0.000, 02:40:10.104
137, 29764.45, 8425.56, -187500.02, -187500.02, -187500.02, -187500.02, -187500.02, -187500.02, 0.000, 0.000, 0.000, 02:40:10.104
138, 29741.34, 8398.47, -187500.02, -187500.02, -187500.02, -187500.02, -187500.02, -187500.02, 0.000, 0.000, 0.000, 02:40:10.104
139, 29739.06, 8369.16, -187500.02, -187500.02, -187500.02, -187500.02, -187500.02, -187500.02, 0.000, 0.000, 0.000, 02:40:10.104
140, 29777.46, 8381.61, -187500.02, -187500.02, -187500.02, -187500.02, -187500.02, -187500.02, 0.000, 0.000, 0.000, 02:40:10.105
141, 29788.13, 8411.25, -187500.02, -187500.02, -187500.02, -187500.02, -187500.02, -187500.02, 0.000, 0.000, 0.000, 02:40:10.105
142, 29767.05, 8389.21, -187500.02, -187500.02, -187500.02, -187500.02, -187500.02, -187500.02, 0.000, 0.000, 0.000, 02:40:10.105
143, 29756.12, 8372.65, -187500.02, -187500.02, -187500.02, -187500.02, -187500.02, -187500.02, 0.000, 0.000, 0.000, 02:40:10.105
144, 29791.52, 8367.33, -187500.02, -187500.02, -187500.02, -187500.02, -187500.02, -187500.02, 0.000, 0.000, 0.000, 02:40:10.105
145, 29795.10, 8417.55, -187500.02, -187500.02, -187500.02, -187500.02, -187500.02, -187500.02, 0.220, 0.992, -0.092, 02:40:10.105
146, 29771.20, 8435.84, -187500.02, -187500.02, -187500.02, -187500.02, -187500.02, -187500.02, 0.000, 0.000, 0.000, 02:40:10.105
147, 29731.24, 8382.98, -187500.02, -187500.02, -187500.02, -187500.02, -187500.02, -187500.02, 0.000, 0.000, 0.000, 02:40:10.105
148, 29775.63, 8389.77, -187500.02, -187500.02, -187500.02, -187500.02, -187500.02, -187500.02, 0.000, 0.000, 0.000, 02:40:10.105
149, 29787.77, 8402.42, -187500.02, -187500.02, -187500.02, -187500.02, -187500.02, -187500.02, 0.000, 0.000, 0.000, 02:40:10.106
150, 29777.35, 8402.51, -187500.02, -187500.02, -187500.02, -187500.02, -187500.02, -187500.02, 0.000, 0.000, 0.000, 02:40:10.106
151, 29748.94, 8383.63, -187500.02, -187500.02, -187500.02, -187500.02, -187500.02, -187500.02, 0.000, 0.000, 0.000, 02:40:10.106
152, 29757.08, 8369.97, -187500.02, -187500.02, -187500.02, -187500.02, -187500.02, -187500.02, 0.000, 0.000, 0.000, 02:40:10.106
153, 29781.82, 8405.55, -187500.02, -187500.02, -187500.02, -187500.02, -187500.02, -187500.02, 0.000, 0.000, 0.000, 02:40:10.106
154, 29769.91, 8413.51, -187500.02, -187500.02, -187500.02, -187500.02, -187500.02, -187500.02, 0.000, 0.000, 0.000, 02:40:10.106
155, 29733.88, 8343.44, -187500.02, -187500.02, -187500.02, -187500.02, -187500.02, -187500.02, 0.220, 0.992, -0.090, 02:40:10.106
156, 29749.79, 8323.07, -187500.02, -187500.02, -187500.02, -187500.02, -187500.02, -187500.02, 0.000, 0.000, 0.000, 02:40:10.107
157, 29789.60, 8431.14, -187500.02, -187500.02, -187500.02, -187500.02, -187500.02, -187500.02, 0.000, 0.000, 0.000, 02:40:10.107
158, 29785.35, 8466.82, -187500.02, -187500.02, -187500.02, -187500.02, -187500.02, -187500.02, 0.000, 0.000, 0.000, 02:40:10.107
159, 29751.33, 8412.62, -187500.02, -187500.02, -187500.02, -187500.02, -187500.02, -187500.02, 0.000, 0.000, 0.000, 02:40:10.107
160, 29750.95, 8398.04, -187500.02, -187500.02, -187500.02, -187500.02, -187500.02, -187500.02, 0.000, 0.000, 0.000, 02:40:10.107
161, 29782.31, 8440.31, -187500.02, -187500.02, -187500.02, -187500.02, -187500.02, -187500.02, 0.000, 0.000, 0.000, 02:40:10.107
162, 29778.31, 8431.90, -187500.02, -187500.02, -187500.02, -187500.02, -187500.02, -187500.02, 0.000, 0.000, 0.000, 02:40:10.107
163, 29758.53, 8404.03, -187500.02, -187500.02, -187500.02, -187500.02, -187500.02, -187500.02, 0.000, 0.000, 0.000, 02:40:10.107
164, 29749.70, 8378.86, -187500.02, -187500.02, -187500.02, -187500.02, -187500.02, -187500.02, 0.000, 0.000, 0.000, 02:40:10.107
165, 29795.41, 8400.57, -187500.02, -187500.02, -187500.02, -187500.02, -187500.02, -187500.02, 0.212, 0.988, -0.084, 02:40:10.108
166, 29792.33, 8409.53, -187500.02, -187500.02, -187500.02, -187500.02, -187500.02, -187500.02, 0.000, 0.000, 0.000, 02:40:10.108
167, 29765.39, 8393.86, -187500.02, -187500.02, -187500.02, -187500.02, -187500.02, -187500.02, 0.000, 0.000, 0.000, 02:40:10.108
168, 29742.30, 8364.11, -187500.02, -187500.02, -187500.02, -187500.02, -187500.02, -187500.02, 0.000, 0.000, 0.000, 02:40:10.108
169, 29780.48, 8385.86, -187500.02, -187500.02, -187500.02, -187500.02, -187500.02, -187500.02, 0.000, 0.000, 0.000, 02:40:10.108
170, 29796.51, 8390.58, -187500.02, -187500.02, -187500.02, -187500.02, -187500.02, -187500.02, 0.000, 0.000, 0.000, 02:40:10.108
171, 29766.67, 8385.77, -187500.02, -187500.02, -187500.02, -187500.02, -187500.02, -187500.02, 0.000, 0.000, 0.000, 02:40:10.108
172, 29740.69, 8365.43, -187500.02, -187500.02, -187500.02, -187500.02, -187500.02, -187500.02, 0.000, 0.000, 0.000, 02:40:10.108
173, 29762.08, 8361.16, -187500.02, -187500.02, -187500.02, -187500.02, -187500.02, -187500.02, 0.000, 0.000, 0.000, 02:40:10.108
174, 29774.74, 8387.67, -187500.02, -187500.02, -187500.02, -187500.02, -187500.02, -187500.02, 0.000, 0.000, 0.000, 02:40:10.108
175, 29755.67, 8398.60, -187500.02, -187500.02, -187500.02, -187500.02, -187500.02, -187500.02, 0.210, 0.992, -0.086, 02:40:10.109
176, 29732.87, 8376.54, -187500.02, -187500.02, -187500.02, -187500.02, -187500.02, -187500.02, 0.000, 0.000, 0.000, 02:40:10.109
177, 29772.43, 8383.80, -187500.02, -187500.02, -187500.02, -187500.02, -187500.02, -187500.02, 0.000, 0.000, 0.000, 02:40:10.109
178, 29786.13, 8411.16, -187500.02, -187500.02, -187500.02, -187500.02, -187500.02, -187500.02, 0.000, 0.000, 0.000, 02:40:10.109
179, 29771.14, 8401.93, -187500.02, -187500.02, -187500.02, -187500.02, -187500.02, -187500.02, 0.000, 0.000, 0.000, 02:40:10.109
180, 29744.43, 8380.14, -187500.02, -187500.02, -187500.02, -187500.02, -187500.02, -187500.02, 0.000, 0.000, 0.000, 02:40:10.109
181, 29757.26, 8366.64, -187500.02, -187500.02, -187500.02, -187500.02, -187500.02, -187500.02, 0.000, 0.000, 0.000, 02:40:10.109
182, 29777.48, 8395.67, -187500.02, -187500.02, -187500.02, -187500.02, -187500.02, -187500.02, 0.000, 0.000, 0.000, 02:40:10.109
183, 29764.63, 8396.54, -187500.02, -187500.02, -187500.02, -187500.02, -187500.02, -187500.02, 0.000, 0.000, 0.000, 02:40:10.109
184, 29752.47, 8365.56, -187500.02, -187500.02, -187500.02, -187500.02, -187500.02, -187500.02, 0.000, 0.000, 0.000, 02:40:10.110
185, 29761.15, 8358.48, -187500.02, -187500.02, -187500.02, -187500.02, -187500.02, -187500.02, 0.214, 0.994, -0.082, 02:40:10.110
186, 29781.62, 8395.02, -187500.02, -187500.02, -187500.02, -187500.02, -187500.02, -187500.02, 0.000, 0.000, 0.000, 02:40:10.110
187, 29781.64, 8392.72, -187500.02, -187500.02, -187500.02, -187500.02, -187500.02, -187500.02, 0.000, 0.000, 0.000, 02:40:10.110
188, 29764.95, 8379.47, -187500.02, -187500.02, -187500.02, -187500.02, -187500.02, -187500.02, 0.000, 0.000, 0.000, 02:40:10.110
189, 29743.04, 8345.90, -187500.02, -187500.02, -187500.02, -187500.02, -187500.02, -187500.02, 0.000, 0.000, 0.000, 02:40:10.110
190, 29779.96, 8373.83, -187500.02, -187500.02, -187500.02, -187500.02, -187500.02, -187500.02, 0.000, 0.000, 0.000, 02:40:10.110
191, 29777.69, 8375.40, -187500.02, -187500.02, -187500.02, -187500.02, -187500.02, -187500.02, 0.000, 0.000, 0.000, 02:40:10.110
192, 29765.88, 8355.89, -187500.02, -187500.02, -187500.02, -187500.02, -187500.02, -187500.02, 0.000, 0.000, 0.000, 02:40:10.111
193, 29749.05, 8335.05, -187500.02, -187500.02, -187500.02, -187500.02, -187500.02, -187500.02, 0.000, 0.000, 0.000, 02:40:10.111
194, 29765.24, 8350.25, -187500.02, -187500.02, -187500.02, -187500.02, -187500.02, -187500.02, 0.000, 0.000, 0.000, 02:40:10.111
195, 29787.16, 8381.14, -187500.02, -187500.02, -187500.02, -187500.02, -187500.02, -187500.02, 0.214, 0.998, -0.086, 02:40:10.111
196, 29777.71, 8405.44, -187500.02, -187500.02, -187500.02, -187500.02, -187500.02, -187500.02, 0.000, 0.000, 0.000, 02:40:10.111
197, 29755.31, 8376.23, -187500.02, -187500.02, -187500.02, -187500.02, -187500.02, -187500.02, 0.000, 0.000, 0.000, 02:40:10.111
198, 29769.91, 8379.92, -187500.02, -187500.02, -187500.02, -187500.02, -187500.02, -187500.02, 0.000, 0.000, 0.000, 02:40:10.111
199, 29784.66, 8385.88, -187500.02, -187500.02, -187500.02, -187500.02, -187500.02, -187500.02, 0.000, 0.000, 0.000, 02:40:10.112
200, 29760.21, 8371.13, -187500.02, -187500.02, -187500.02, -187500.02, -187500.02, -187500.02, 0.000, 0.000, 0.000, 02:40:10.112
201, 29722.97, 8340.64, -187500.02, -187500.02, -187500.02, -187500.02, -187500.02, -187500.02, 0.000, 0.000, 0.000, 02:40:10.112
202, 29742.15, 8348.06, -187500.02, -187500.02, -187500.02, -187500.02, -187500.02, -187500.02, 0.000, 0.000, 0.000, 02:40:10.112
203, 29785.78, 8367.44, -187500.02, -187500.02, -187500.02, -187500.02, -187500.02, -187500.02, 0.000, 0.000, 0.000, 02:40:10.112
204, 29802.99, 8367.44, -187500.02, -187500.02, -187500.02, -187500.02, -187500.02, -187500.02, 0.218, 0.992, -0.084, 02:40:10.112
205, 29779.36, 8360.58, -187500.02, -187500.02, -187500.02, -187500.02, -187500.02, -187500.02, 0.000, 0.000, 0.000, 02:40:10.112
206, 29770.60, 8353.18, -187500.02, -187500.02, -187500.02, -187500.02, -187500.02, -187500.02, 0.000, 0.000, 0.000, 02:40:10.112
207, 29785.49, 8371.89, -187500.02, -187500.02, -187500.02, -187500.02, -187500.02, -187500.02, 0.000, 0.000, 0.000, 02:40:10.113
208, 29767.18, 8356.53, -187500.02, -187500.02, -187500.02, -187500.02, -187500.02, -187500.02, 0.000, 0.000, 0.000, 02:40:10.113
209, 29744.00, 8335.70, -187500.02, -187500.02, -187500.02, -187500.02, -187500.02, -187500.02, 0.000, 0.000, 0.000, 02:40:10.113
210, 29735.06, 8333.02, -187500.02, -187500.02, -187500.02, -187500.02, -187500.02, -187500.02, 0.000, 0.000, 0.000, 02:40:10.113
211, 29754.71, 8353.94, -187500.02, -187500.02, -187500.02, -187500.02, -187500.02, -187500.02, 0.000, 0.000, 0.000, 02:40:10.113
212, 29757.23, 8366.41, -187500.02, -187500.02, -187500.02, -187500.02, -187500.02, -187500.02, 0.000, 0.000, 0.000, 02:40:10.113
213, 29745.43, 8319.03, -187500.02, -187500.02, -187500.02, -187500.02, -187500.02, -187500.02, 0.000, 0.000, 0.000, 02:40:10.113
214, 29734.08, 8329.18, -187500.02, -187500.02, -187500.02, -187500.02, -187500.02, -187500.02, 0.218, 0.994, -0.084, 02:40:10.114
215, 29769.91, 8357.85, -187500.02, -187500.02, -187500.02, -187500.02, -187500.02, -187500.02, 0.000, 0.000, 0.000, 02:40:10.114
216, 29773.80, 8369.63, -187500.02, -187500.02, -187500.02, -187500.02, -187500.02, -187500.02, 0.000, 0.000, 0.000, 02:40:10.114
217, 29764.05, 8358.19, -187500.02, -187500.02, -187500.02, -187500.02, -187500.02, -187500.02, 0.000, 0.000, 0.000, 02:40:10.114
218, 29748.58, 8339.35, -187500.02, -187500.02, -187500.02, -187500.02, -187500.02, -187500.02, 0.000, 0.000, 0.000, 02:40:10.114
219, 29780.01, 8350.25, -187500.02, -187500.02, -187500.02, -187500.02, -187500.02, -187500.02, 0.000, 0.000, 0.000, 02:40:10.115
220, 29780.77, 8347.73, -187500.02, -187500.02, -187500.02, -187500.02, -187500.02, -187500.02, 0.000, 0.000, 0.000, 02:40:10.115
221, 29769.84, 8338.00, -187500.02, -187500.02, -187500.02, -187500.02, -187500.02, -187500.02, 0.000, 0.000, 0.000, 02:40:10.115
222, 29748.96, 8331.12, -187500.02, -187500.02, -187500.02, -187500.02, -187500.02, -187500.02, 0.000, 0.000, 0.000, 02:40:10.115
223, 29764.01, 8349.70, -187500.02, -187500.02, -187500.02, -187500.02, -187500.02, -187500.02, 0.000, 0.000, 0.000, 02:40:10.115
224, 29777.64, 8361.30, -187500.02, -187500.02, -187500.02, -187500.02, -187500.02, -187500.02, 0.226, 0.994, -0.080, 02:40:10.115
225, 29771.05, 8343.77, -187500.02, -187500.02, -187500.02, -187500.02, -187500.02, -187500.02, 0.000, 0.000, 0.000, 02:40:10.115
226, 29740.04, 8333.76, -187500.02, -187500.02, -187500.02, -187500.02, -187500.02, -187500.02, 0.000, 0.000, 0.000, 02:40:10.115
227, 29755.29, 8336.04, -187500.02, -187500.02, -187500.02, -187500.02, -187500.02, -187500.02, 0.000, 0.000, 0.000, 02:40:10.116
228, 29775.18, 8353.50, -187500.02, -187500.02, -187500.02, -187500.02, -187500.02, -187500.02, 0.000, 0.000, 0.000, 02:40:10.116
229, 29770.27, 8354.39, -187500.02, -187500.02, -187500.02, -187500.02, -187500.02, -187500.02, 0.000, 0.000, 0.000, 02:40:10.116
230, 29743.40, 8318.22, -187500.02, -187500.02, -187500.02, -187500.02, -187500.02, -187500.02, 0.000, 0.000, 0.000, 02:40:10.116
231, 29746.62, 8287.27, -187500.02, -187500.02, -187500.02, -187500.02, -187500.02, -187500.02, 0.000, 0.000, 0.000, 02:40:10.116
232, 29783.86, 8328.13, -187500.02, -187500.02, -187500.02, -187500.02, -187500.02, -187500.02, 0.000, 0.000, 0.000, 02:40:10.116
233, 29794.23, 8360.13, -187500.02, -187500.02, -187500.02, -187500.02, -187500.02, -187500.02, 0.000, 0.000, 0.000, 02:40:10.116
234, 29769.01, 8361.85, -187500.02, -187500.02, -187500.02, -187500.02, -187500.02, -187500.02, 0.230, 0.994, -0.086, 02:40:10.116
235, 29770.13, 8334.58, -187500.02, -187500.02, -187500.02, -187500.02, -187500.02, -187500.02, 0.000, 0.000, 0.000, 02:40:10.117
236, 29806.92, 8338.30, -187500.02, -187500.02, -187500.02, -187500.02, -187500.02, -187500.02, 0.000, 0.000, 0.000, 02:40:10.117
237, 29791.99, 8333.04, -187500.02, -187500.02, -187500.02, -187500.02, -187500.02, -187500.02, 0.000, 0.000, 0.000, 02:40:10.117
238, 29766.60, 8336.73, -187500.02, -187500.02, -187500.02, -187500.02, -187500.02, -187500.02, 0.000, 0.000, 0.000, 02:40:10.117
239, 29755.27, 8316.37, -187500.02, -187500.02, -187500.02, -187500.02, -187500.02, -187500.02, 0.000, 0.000, 0.000, 02:40:10.117
240, 29780.14, 8332.53, -187500.02, -187500.02, -187500.02, -187500.02, -187500.02, -187500.02, 0.000, 0.000, 0.000, 02:40:10.117
241, 29789.85, 8353.94, -187500.02, -187500.02, -187500.02, -187500.02, -187500.02, -187500.02, 0.000, 0.000, 0.000, 02:40:10.583
242, 29771.07, 8355.26, -187500.02, -187500.02, -187500.02, -187500.02, -187500.02, -187500.02, 0.000, 0.000, 0.000, 02:40:10.583
243, 29743.94, 8323.79, -187500.02, -187500.02, -187500.02, -187500.02, -187500.02, -187500.02, 0.000, 0.000, 0.000, 02:40:10.583
244, 29771.09, 8328.10, -187500.02, -187500.02, -187500.02, -187500.02, -187500.02, -187500.02, 0.226, 0.996, -0.084, 02:40:10.584
245, 29788.28, 8352.62, -187500.02, -187500.02, -187500.02, -187500.02, -187500.02, -187500.02, 0.000, 0.000, 0.000, 02:40:10.584
246, 29771.29, 8334.45, -187500.02, -187500.02, -187500.02, -187500.02, -187500.02, -187500.02, 0.000, 0.000, 0.000, 02:40:10.584
247, 29736.60, 8309.84, -187500.02, -187500.02, -187500.02, -187500.02, -187500.02, -187500.02, 0.000, 0.000, 0.000, 02:40:10.584
248, 29768.66, 8343.33, -187500.02, -187500.02, -187500.02, -187500.02, -187500.02, -187500.02, 0.000, 0.000, 0.000, 02:40:10.584
249, 29792.28, 8352.53, -187500.02, -187500.02, -187500.02, -187500.02, -187500.02, -187500.02, 0.000, 0.000, 0.000, 02:40:10.585
250, 29777.44, 8324.04, -187500.02, -187500.02, -187500.02, -187500.02, -187500.02, -187500.02, 0.000, 0.000, 0.000, 02:40:10.585
251, 29753.88, 8314.54, -187500.02, -187500.02, -187500.02, -187500.02, -187500.02, -187500.02, 0.000, 0.000, 0.000, 02:40:10.585
252, 29760.25, 8322.52, -187500.02, -187500.02, -187500.02, -187500.02, -187500.02, -187500.02, 0.000, 0.000, 0.000, 02:40:10.585
253, 29786.69, 8330.92, -187500.02, -187500.02, -187500.02, -187500.02, -187500.02, -187500.02, 0.000, 0.000, 0.000, 02:40:10.585
254, 29776.34, 8317.73, -187500.02, -187500.02, -187500.02, -187500.02, -187500.02, -187500.02, 0.222, 0.998, -0.094, 02:40:10.586
255, 29758.98, 8315.92, -187500.02, -187500.02, -187500.02, -187500.02, -187500.02, -187500.02, 0.000, 0.000, 0.000, 02:40:10.586
0, 29763.43, 8315.05, -187500.02, -187500.02, -187500.02, -187500.02, -187500.02, -187500.02, 0.000, 0.000, 0.000, 02:40:10.586
1, 29783.65, 8337.33, -187500.02, -187500.02, -187500.02, -187500.02, -187500.02, -187500.02, 0.000, 0.000, 0.000, 02:40:10.587
2, 29784.84, 8345.76, -187500.02, -187500.02, -187500.02, -187500.02, -187500.02, -187500.02, 0.000, 0.000, 0.000, 02:40:10.587
3, 29758.87, 8315.16, -187500.02, -187500.02, -187500.02, -187500.02, -187500.02, -187500.02, 0.000, 0.000, 0.000, 02:40:10.587
4, 29748.63, 8303.54, -187500.02, -187500.02, -187500.02, -187500.02, -187500.02, -187500.02, 0.000, 0.000, 0.000, 02:40:10.587
5, 29776.14, 8327.66, -187500.02, -187500.02, -187500.02, -187500.02, -187500.02, -187500.02, 0.000, 0.000, 0.000, 02:40:10.587
6, 29776.19, 8305.53, -187500.02, -187500.02, -187500.02, -187500.02, -187500.02, -187500.02, 0.000, 0.000, 0.000, 02:40:10.587
7, 29750.57, 8294.84, -187500.02, -187500.02, -187500.02, -187500.02, -187500.02, -187500.02, 0.218, 0.996, -0.094, 02:40:10.588
8, 29743.00, 8312.59, -187500.02, -187500.02, -187500.02, -187500.02, -187500.02, -187500.02, 0.000, 0.000, 0.000, 02:40:10.588
9, 29773.10, 8318.20, -187500.02, -187500.02, -187500.02, -187500.02, -187500.02, -187500.02, 0.000, 0.000, 0.000, 02:40:10.588
10, 29764.77, 8303.76, -187500.02, -187500.02, -187500.02, -187500.02, -187500.02, -187500.02, 0.000, 0.000, 0.000, 02:40:10.588
11, 29756.14, 8307.18, -187500.02, -187500.02, -187500.02, -187500.02, -187500.02, -187500.02, 0.000, 0.000, 0.000, 02:40:10.589
12, 29734.37, 8298.26, -187500.02, -187500.02, -187500.02, -187500.02, -187500.02, -187500.02, 0.000, 0.000, 0.000, 02:40:10.589
13, 29747.29, 8307.03, -187500.02, -187500.02, -187500.02, -187500.02, -187500.02, -187500.02, 0.000, 0.000, 0.000, 02:40:10.589
14, 29759.16, 8307.72, -187500.02, -187500.02, -187500.02, -187500.02, -187500.02, -187500.02, 0.000, 0.000, 0.000, 02:40:10.589
15, 29752.94, 8317.53, -187500.02, -187500.02, -187500.02, -187500.02, -187500.02, -187500.02, 0.000, 0.000, 0.000, 02:40:10.589
16, 29730.32, 8305.75, -187500.02, -187500.02, -187500.02, -187500.02, -187500.02, -187500.02, 0.000, 0.000, 0.000, 02:40:10.589
17, 29757.57, 8296.88, -187500.02, -187500.02, -187500.02, -187500.02, -187500.02, -187500.02, 0.220, 0.996, -0.094, 02:40:10.589
18, 29785.75, 8311.41, -187500.02, -187500.02, -187500.02, -187500.02, -187500.02, -187500.02, 0.000, 0.000, 0.000, 02:40:10.589
19, 29773.93, 8334.90, -187500.02, -187500.02, -187500.02, -187500.02, -187500.02, -187500.02, 0.000, 0.000, 0.000, 02:40:10.589
20, 29751.00, 8313.49, -187500.02, -187500.02, -187500.02, -187500.02, -187500.02, -187500.02, 0.000, 0.000, 0.000, 02:40:10.590
21, 29762.78, 8310.42, -187500.02, -187500.02, -187500.02, -187500.02, -187500.02, -187500.02, 0.000, 0.000, 0.000, 02:40:10.590
22, 29794.79, 8335.43, -187500.02, -187500.02, -187500.02, -187500.02, -187500.02, -187500.02, 0.000, 0.000, 0.000, 02:40:10.590
23, 29782.34, 8322.31, -187500.02, -187500.02, -187500.02, -187500.02, -187500.02, -187500.02, 0.000, 0.000, 0.000, 02:40:10.590
24, 29749.75, 8282.75, -187500.02, -187500.02, -187500.02, -187500.02, -187500.02, -187500.02, 0.000, 0.000, 0.000, 02:40:10.590
25, 29740.65, 8283.18, -187500.02, -187500.02, -187500.02, -187500.02, -187500.02, -187500.02, 0.000, 0.000, 0.000, 02:40:10.590
26, 29786.00, 8310.51, -187500.02, -187500.02, -187500.02, -187500.02, -187500.02, -187500.02, 0.000, 0.000, 0.000, 02:40:10.590
27, 29796.28, 8315.99, -187500.02, -187500.02, -187500.02, -187500.02, -187500.02, -187500.02, 0.214, 0.988, -0.088, 02:40:10.591
28, 29776.61, 8333.13, -187500.02, -187500.02, -187500.02, -187500.02, -187500.02, -187500.02, 0.000, 0.000, 0.000, 02:40:10.591
29, 29774.85, 8319.12, -187500.02, -187500.02, -187500.02, -187500.02, -187500.02, -187500.02, 0.000, 0.000, 0.000, 02:40:10.591
30, 29789.64, 8313.31, -187500.02, -187500.02, -187500.02, -187500.02, -187500.02, -187500.02, 0.000, 0.000, 0.000, 02:40:10.591
31, 29780.30, 8316.73, -187500.02, -187500.02, -187500.02, -187500.02, -187500.02, -187500.02, 0.000, 0.000, 0.000, 02:40:10.591
32, 29749.23, 8309.26, -187500.02, -187500.02, -187500.02, -187500.02, -187500.02, -187500.02, 0.000, 0.000, 0.000, 02:40:10.591
33, 29744.90, 8290.71, -187500.02, -187500.02, -187500.02, -187500.02, -187500.02, -187500.02, 0.000, 0.000, 0.000, 02:40:10.591
34, 29775.32, 8309.33, -187500.02, -187500.02, -187500.02, -187500.02, -187500.02, -187500.02, 0.000, 0.000, 0.000, 02:40:10.592
35, 29784.19, 8327.88, -187500.02, -187500.02, -187500.02, -187500.02, -187500.02, -187500.02, 0.000, 0.000, 0.000, 02:40:10.592
36, 29773.19, 8323.43, -187500.02, -187500.02, -187500.02, -187500.02, -187500.02, -187500.02, 0.000, 0.000, 0.000, 02:40:10.592
37, 29739.15, 8302.51, -187500.02, -187500.02, -187500.02, -187500.02, -187500.02, -187500.02, 0.220, 0.992, -0.088, 02:40:10.592
38, 29755.94, 8295.98, -187500.02, -187500.02, -187500.02, -187500.02, -187500.02, -187500.02, 0.000, 0.000, 0.000, 02:40:10.592
39, 29777.04, 8303.58, -187500.02, -187500.02, -187500.02, -187500.02, -187500.02, -187500.02, 0.000, 0.000, 0.000, 02:40:10.592
40, 29761.48, 8302.38, -187500.02, -187500.02, -187500.02, -187500.02, -187500.02, -187500.02, 0.000, 0.000, 0.000, 02:40:10.592
41, 29740.11, 8266.30, -187500.02, -187500.02, -187500.02, -187500.02, -187500.02, -187500.02, 0.000, 0.000, 0.000, 02:40:10.592
42, 29753.48, 8268.07, -187500.02, -187500.02, -187500.02, -187500.02, -187500.02, -187500.02, 0.000, 0.000, 0.000, 02:40:10.592
43, 29778.58, 8315.47, -187500.02, -187500.02, -187500.02, -187500.02, -187500.02, -187500.02, 0.000, 0.000, 0.000, 02:40:10.593
44, 29769.77, 8332.46, -187500.02, -187500.02, -187500.02, -187500.02, -187500.02, -187500.02, 0.000, 0.000, 0.000, 02:40:10.593
45, 29739.20, 8301.73, -187500.02, -187500.02, -187500.02, -187500.02, -187500.02, -187500.02, 0.000, 0.000, 0.000, 02:40:10.593
46, 29737.54, 8272.04, -187500.02, -187500.02, -187500.02, -187500.02, -187500.02, -187500.02, 0.000, 0.000, 0.000, 02:40:10.593
47, 29771.81, 8318.89, -187500.02, -187500.02, -187500.02, -187500.02, -187500.02, -187500.02, 0.220, 0.990, -0.086, 02:40:10.593
48, 29769.15, 8317.13, -187500.02, -187500.02, -187500.02, -187500.02, -187500.02, -187500.02, 0.000, 0.000, 0.000, 02:40:10.593
49, 29747.78, 8290.19, -187500.02, -187500.02, -187500.02, -187500.02, -187500.02, -187500.02, 0.000, 0.000, 0.000, 02:40:10.593
50, 29748.00, 8267.24, -187500.02, -187500.02, -187500.02, -187500.02, -187500.02, -187500.02, 0.000, 0.000, 0.000, 02:40:10.593
51, 29787.41, 8292.21, -187500.02, -187500.02, -187500.02, -187500.02, -187500.02, -187500.02, 0.000, 0.000, 0.000, 02:40:10.593
52, 29788.37, 8306.82, -187500.02, -187500.02, -187500.02, -187500.02, -187500.02, -187500.02, 0.000, 0.000, 0.000, 02:40:10.594
53, 29765.46, 8311.83, -187500.02, -187500.02, -187500.02, -187500.02, -187500.02, -187500.02, 0.000, 0.000, 0.000, 02:40:10.594
54, 29750.10, 8294.69, -187500.02, -187500.02, -187500.02, -187500.02, -187500.02, -187500.02, 0.000, 0.000, 0.000, 02:40:10.594
55, 29786.16, 8329.89, -187500.02, -187500.02, -187500.02, -187500.02, -187500.02, -187500.02, 0.000, 0.000, 0.000, 02:40:10.594
56, 29782.67, 8335.37, -187500.02, -187500.02, -187500.02, -187500.02, -187500.02, -187500.02, 0.000, 0.000, 0.000, 02:40:10.594
57, 29763.38, 8318.00, -187500.02, -187500.02, -187500.02, -187500.02, -187500.02, -187500.02, 0.224, 0.990, -0.086, 02:40:10.594
58, 29749.99, 8291.00, -187500.02, -187500.02, -187500.02, -187500.02, -187500.02, -187500.02, 0.000, 0.000, 0.000, 02:40:10.594
59, 29779.85, 8308.90, -187500.02, -187500.02, -187500.02, -187500.02, -187500.02, -187500.02, 0.000, 0.000, 0.000, 02:40:10.594
60, 29789.33, 8320.35, -187500.02, -187500.02, -187500.02, -187500.02, -187500.02, -187500.02, 0.000, 0.000, 0.000, 02:40:10.595
61, 29773.60, 8343.88, -187500.02, -187500.02, -187500.02, -187500.02, -187500.02, -187500.02, 0.000, 0.000, 0.000, 02:40:10.595
62, 29745.95, 8314.65, -187500.02, -187500.02, -187500.02, -187500.02, -187500.02, -187500.02, 0.000, 0.000, 0.000, 02:40:10.595
63, 29770.51, 8301.13, -187500.02, -187500.02, -187500.02, -187500.02, -187500.02, -187500.02, 0.000, 0.000, 0.000, 02:40:10.595
64, 29792.71, 8339.53, -187500.02, -187500.02, -187500.02, -187500.02, -187500.02, -187500.02, 0.000, 0.000, 0.000, 02:40:10.595
65, 29788.59, 8354.25, -187500.02, -187500.02, -187500.02, -187500.02, -187500.02, -187500.02, 0.000, 0.000, 0.000, 02:40:10.595
66, 29762.49, 8331.23, -187500.02, -187500.02, -187500.02, -187500.02, -187500.02, -187500.02, 0.222, 0.992, -0.088, 02:40:10.595
67, 29773.77, 8346.86, -187500.02, -187500.02, -187500.02, -187500.02, -187500.02, -187500.02, 0.000, 0.000, 0.000, 02:40:10.596
68, 29793.29, 8345.29, -187500.02, -187500.02, -187500.02, -187500.02, -187500.02, -187500.02, 0.000, 0.000, 0.000, 02:40:10.596
69, 29791.48, 8338.45, -187500.02, -187500.02, -187500.02, -187500.02, -187500.02, -187500.02, 0.000, 0.000, 0.000, 02:40:10.596
70, 29762.44, 8359.13, -187500.02, -187500.02, -187500.02, -187500.02, -187500.02, -187500.02, 0.000, 0.000, 0.000, 02:40:10.596
71, 29764.65, 8345.09, -187500.02, -187500.02, -187500.02, -187500.02, -187500.02, -187500.02, 0.000, 0.000, 0.000, 02:40:10.596
72, 29788.26, 8370.53, -187500.02, -187500.02, -187500.02, -187500.02, -187500.02, -187500.02, 0.000, 0.000, 0.000, 02:40:10.596
73, 29775.07, 8350.12, -187500.02, -187500.02, -187500.02, -187500.02, -187500.02, -187500.02, 0.000, 0.000, 0.000, 02:40:10.596
74, 29755.80, 8335.66, -187500.02, -187500.02, -187500.02, -187500.02, -187500.02, -187500.02, 0.000, 0.000, 0.000, 02:40:10.596
75, 29757.46, 8338.00, -187500.02, -187500.02, -187500.02, -187500.02, -187500.02, -187500.02, 0.000, 0.000, 0.000, 02:40:10.597
76, 29789.85, 8364.78, -187500.02, -187500.02, -187500.02, -187500.02, -187500.02, -187500.02, 0.220, 0.992, -0.086, 02:40:10.597
77, 29788.75, 8378.53, -187500.02, -187500.02, -187500.02, -187500.02, -187500.02, -187500.02, 0.000, 0.000, 0.000, 02:40:10.597
78, 29781.15, 8347.91, -187500.02, -187500.02, -187500.02, -187500.02, -187500.02, -187500.02, 0.000, 0.000, 0.000, 02:40:10.597
79, 29762.82, 8331.57, -187500.02, -187500.02, -187500.02, -187500.02, -187500.02, -187500.02, 0.000, 0.000, 0.000, 02:40:10.597
80, 29789.40, 8364.74, -187500.02, -187500.02, -187500.02, -187500.02, -187500.02, -187500.02, 0.000, 0.000, 0.000, 02:40:10.597
81, 29779.74, 8368.45, -187500.02, -187500.02, -187500.02, -187500.02, -187500.02, -187500.02, 0.000, 0.000, 0.000, 02:40:10.597
82, 29777.60, 8353.32, -187500.02, -187500.02, -187500.02, -187500.02, -187500.02, -187500.02, 0.000, 0.000, 0.000, 02:40:10.598
83, 29754.51, 8333.15, -187500.02, -187500.02, -187500.02, -187500.02, -187500.02, -187500.02, 0.000, 0.000, 0.000, 02:40:10.598
84, 29775.23, 8339.08, -187500.02, -187500.02, -187500.02, -187500.02, -187500.02, -187500.02, 0.000, 0.000, 0.000, 02:40:10.598
85, 29795.68, 8368.18, -187500.02, -187500.02, -187500.02, -187500.02, -187500.02, -187500.02, 0.000, 0.000, 0.000, 02:40:10.598
86, 29785.29, 8374.82, -187500.02, -187500.02, -187500.02, -187500.02, -187500.02, -187500.02, 0.222, 0.992, -0.086, 02:40:10.598
87, 29764.97, 8352.60, -187500.02, -187500.02, -187500.02, -187500.02, -187500.02, -187500.02, 0.000, 0.000, 0.000, 02:40:10.598
88, 29780.21, 8354.86, -187500.02, -187500.02, -187500.02, -187500.02, -187500.02, -187500.02, 0.000, 0.000, 0.000, 02:40:10.598
89, 29800.62, 8381.64, -187500.02, -187500.02, -187500.02, -187500.02, -187500.02, -187500.02, 0.000, 0.000, 0.000, 02:40:10.598
90, 29781.78, 8368.40, -187500.02, -187500.02, -187500.02, -187500.02, -187500.02, -187500.02, 0.000, 0.000, 0.000, 02:40:10.598
91, 29759.13, 8339.59, -187500.02, -187500.02, -187500.02, -187500.02, -187500.02, -187500.02, 0.000, 0.000, 0.000, 02:40:10.599
92, 29776.63, 8340.98, -187500.02, -187500.02, -187500.02, -187500.02, -187500.02, -187500.02, 0.000, 0.000, 0.000, 02:40:10.599
93, 29803.88, 8372.20, -187500.02, -187500.02, -187500.02, -187500.02, -187500.02, -187500.02, 0.000, 0.000, 0.000, 02:40:10.599
94, 29788.59, 8376.61, -187500.02, -187500.02, -187500.02, -187500.02, -187500.02, -187500.02, 0.000, 0.000, 0.000, 02:40:10.599
95, 29756.99, 8357.94, -187500.02, -187500.02, -187500.02, -187500.02, -187500.02, -187500.02, 0.000, 0.000, 0.000, 02:40:10.599
96, 29760.92, 8340.46, -187500.02, -187500.02, -187500.02, -187500.02, -187500.02, -187500.02, 0.222, 0.990, -0.092, 02:40:10.599
97, 29790.36, 8354.01, -187500.02, -187500.02, -187500.02, -187500.02, -187500.02, -187500.02, 0.000, 0.000, 0.000, 02:40:10.599
98, 29793.06, 8351.66, -187500.02, -187500.02, -187500.02, -187500.02, -187500.02, -187500.02, 0.000, 0.000, 0.000, 02:40:10.599
99, 29773.06, 8366.68, -187500.02, -187500.02, -187500.02, -187500.02, -187500.02, -187500.02, 0.000, 0.000, 0.000, 02:40:10.599
100, 29755.29, 8357.32, -187500.02, -187500.02, -187500.02, -187500.02, -187500.02, -187500.02, 0.000, 0.000, 0.000, 02:40:10.600
101, 29787.43, 8364.09, -187500.02, -187500.02, -187500.02, -187500.02, -187500.02, -187500.02, 0.000, 0.000, 0.000, 02:40:10.600
102, 29786.65, 8386.17, -187500.02, -187500.02, -187500.02, -187500.02, -187500.02, -187500.02, 0.000, 0.000, 0.000, 02:40:10.600
103, 29754.66, 8374.28, -187500.02, -187500.02, -187500.02, -187500.02, -187500.02, -187500.02, 0.000, 0.000, 0.000, 02:40:10.600
104, 29738.62, 8349.05, -187500.02, -187500.02, -187500.02, -187500.02, -187500.02, -187500.02, 0.000, 0.000, 0.000, 02:40:10.600
105, 29770.98, 8367.42, -187500.02, -187500.02, -187500.02, -187500.02, -187500.02, -187500.02, 0.000, 0.000, 0.000, 02:40:11.064
106, 29788.50, 8377.39, -187500.02, -187500.02, -187500.02, -187500.02, -187500.02, -187500.02, 0.216, 0.996, -0.094, 02:40:11.064
107, 29783.18, 8369.03, -187500.02, -187500.02, -187500.02, -187500.02, -187500.02, -187500.02, 0.000, 0.000, 0.000, 02:40:11.064
108, 29771.94, 8337.56, -187500.02, -187500.02, -187500.02, -187500.02, -187500.02, -187500.02, 0.000, 0.000, 0.000, 02:40:11.064
109, 29796.66, 8365.21, -187500.02, -187500.02, -187500.02, -187500.02, -187500.02, -187500.02, 0.000, 0.000, 0.000, 02:40:11.064
110, 29802.85, 8388.90, -187500.02, -187500.02, -187500.02, -187500.02, -187500.02, -187500.02, 0.000, 0.000, 0.000, 02:40:11.064
111, 29779.96, 8358.01, -187500.02, -187500.02, -187500.02, -187500.02, -187500.02, -187500.02, 0.000, 0.000, 0.000, 02:40:11.064
112, 29754.82, 8332.22, -187500.02, -187500.02, -187500.02, -187500.02, -187500.02, -187500.02, 0.000, 0.000, 0.000, 02:40:11.065
113, 29769.46, 8344.60, -187500.02, -187500.02, -187500.02, -187500.02, -187500.02, -187500.02, 0.000, 0.000, 0.000, 02:40:11.065
114, 29792.04, 8354.88, -187500.02, -187500.02, -187500.02, -187500.02, -187500.02, -187500.02, 0.000, 0.000, 0.000, 02:40:11.065
115, 29771.25, 8345.56, -187500.02, -187500.02, -187500.02, -187500.02, -187500.02, -187500.02, 0.000, 0.000, 0.000, 02:40:11.065
116, 29749.08, 8339.21, -187500.02, -187500.02, -187500.02, -187500.02, -187500.02, -187500.02, 0.210, 0.996, -0.084, 02:40:11.065
117, 29762.58, 8332.37, -187500.02, -187500.02, -187500.02, -187500.02, -187500.02, -187500.02, 0.000, 0.000, 0.000, 02:40:11.065
118, 29785.55, 8374.04, -187500.02, -187500.02, -187500.02, -187500.02, -187500.02, -187500.02, 0.000, 0.000, 0.000, 02:40:11.065
119, 29773.08, 8358.17, -187500.02, -187500.02, -187500.02, -187500.02, -187500.02, -187500.02, 0.000, 0.000, 0.000, 02:40:11.065
120, 29755.74, 8339.19, -187500.02, -187500.02, -187500.02, -187500.02, -187500.02, -187500.02, 0.000, 0.000, 0.000, 02:40:11.066
121, 29750.89, 8337.85, -187500.02, -187500.02, -187500.02, -187500.02, -187500.02, -187500.02, 0.000, 0.000, 0.000, 02:40:11.066
122, 29783.01, 8368.38, -187500.02, -187500.02, -187500.02, -187500.02, -187500.02, -187500.02, 0.000, 0.000, 0.000, 02:40:11.066
123, 29782.42, 8360.36, -187500.02, -187500.02, -187500.02, -187500.02, -187500.02, -187500.02, 0.000, 0.000, 0.000, 02:40:11.066
124, 29764.05, 8349.58, -187500.02, -187500.02, -187500.02, -187500.02, -187500.02, -187500.02, 0.000, 0.000, 0.000, 02:40:11.067
125, 29756.56, 8338.27, -187500.02, -187500.02, -187500.02, -187500.02, -187500.02, -187500.02, 0.000, 0.000, 0.000, 02:40:11.067
126, 29785.08, 8363.31, -187500.02, -187500.02, -187500.02, -187500.02, -187500.02, -187500.02, 0.212, 0.998, -0.090, 02:40:11.067
127, 29791.25, 8356.27, -187500.02, -187500.02, -187500.02, -187500.02, -187500.02, -187500.02, 0.000, 0.000, 0.000, 02:40:11.067
128, 29763.31, 8362.70, -187500.02, -187500.02, -187500.02, -187500.02, -187500.02, -187500.02, 0.000, 0.000, 0.000, 02:40:11.067
129, 29746.62, 8345.00, -187500.02, -187500.02, -187500.02, -187500.02, -187500.02, -187500.02, 0.000, 0.000, 0.000, 02:40:11.067
130, 29775.34, 8357.41, -187500.02, -187500.02, -187500.02, -187500.02, -187500.02, -187500.02, 0.000, 0.000, 0.000, 02:40:11.068
131, 29777.42, 8361.97, -187500.02, -187500.02, -187500.02, -187500.02, -187500.02, -187500.02, 0.000, 0.000, 0.000, 02:40:11.068
132, 29773.77, 8352.69, -187500.02, -187500.02, -187500.02, -187500.02, -187500.02, -187500.02, 0.000, 0.000, 0.000, 02:40:11.068
133, 29751.22, 8301.37, -187500.02, -187500.02, -187500.02, -187500.02, -187500.02, -187500.02, 0.000, 0.000, 0.000, 02:40:11.068
134, 29777.95, 8314.31, -187500.02, -187500.02, -187500.02, -187500.02, -187500.02, -187500.02, 0.000, 0.000, 0.000, 02:40:11.068
135, 29793.06, 8386.35, -187500.02, -187500.02, -187500.02, -187500.02, -187500.02, -187500.02, 0.214, 0.990, -0.086, 02:40:11.068
136, 29777.84, 8374.28, -187500.02, -187500.02, -187500.02, -187500.02, -187500.02, -187500.02, 0.000, 0.000, 0.000, 02:40:11.068
137, 29749.93, 8357.38, -187500.02, -187500.02, -187500.02, -187500.02, -187500.02, -187500.02, 0.000, 0.000, 0.000, 02:40:11.069
138, 29769.66, 8356.80, -187500.02, -187500.02, -187500.02, -187500.02, -187500.02, -187500.02, 0.000, 0.000, 0.000, 02:40:11.069
139, 29799.90, 8370.24, -187500.02, -187500.02, -187500.02, -187500.02, -187500.02, -187500.02, 0.000, 0.000, 0.000, 02:40:11.069
140, 29790.98, 8358.30, -187500.02, -187500.02, -187500.02, -187500.02, -187500.02, -187500.02, 0.000, 0.000, 0.000, 02:40:11.069
141, 29763.34, 8344.42, -187500.02, -187500.02, -187500.02, -187500.02, -187500.02, -187500.02, 0.000, 0.000, 0.000, 02:40:11.069
142, 29757.28, 8349.85, -187500.02, -187500.02, -187500.02, -187500.02, -187500.02, -187500.02, 0.000, 0.000, 0.000, 02:40:11.069
143, 29782.96, 8369.19, -187500.02, -187500.02, -187500.02, -187500.02, -187500.02, -187500.02, 0.000, 0.000, 0.000, 02:40:11.069
144, 29775.94, 8356.83, -187500.02, -187500.02, -187500.02, -187500.02, -187500.02, -187500.02, 0.000, 0.000, 0.000, 02:40:11.069
145, 29747.82, 8343.33, -187500.02, -187500.02, -187500.02, -187500.02, -187500.02, -187500.02, 0.214, 0.988, -0.088, 02:40:11.069
146, 29748.61, 8330.12, -187500.02, -187500.02, -187500.02, -187500.02, -187500.02, -187500.02, 0.000, 0.000, 0.000, 02:40:11.070
147, 29782.56, 8364.51, -187500.02, -187500.02, -187500.02, -187500.02, -187500.02, -187500.02, 0.000, 0.000, 0.000, 02:40:11.070
148, 29790.27, 8354.17, -187500.02, -187500.02, -187500.02, -187500.02, -187500.02, -187500.02, 0.000, 0.000, 0.000, 02:40:11.070
149, 29761.15, 8329.82, -187500.02, -187500.02, -187500.02, -187500.02, -187500.02, -187500.02, 0.000, 0.000, 0.000, 02:40:11.070
150, 29742.75, 8329.76, -187500.02, -187500.02, -187500.02, -187500.02, -187500.02, -187500.02, 0.000, 0.000, 0.000, 02:40:11.070
151, 29779.54, 8364.58, -187500.02, -187500.02, -187500.02, -187500.02, -187500.02, -187500.02, 0.000, 0.000, 0.000, 02:40:11.070
152, 29781.35, 8369.48, -187500.02, -187500.02, -187500.02, -187500.02, -187500.02, -187500.02, 0.000, 0.000, 0.000, 02:40:11.070
153, 29768.52, 8354.32, -187500.02, -187500.02, -187500.02, -187500.02, -187500.02, -187500.02, 0.000, 0.000, 0.000, 02:40:11.070
154, 29745.39, 8335.46, -187500.02, -187500.02, -187500.02, -187500.02, -187500.02, -187500.02, 0.000, 0.000, 0.000, 02:40:11.071
155, 29771.67, 8344.38, -187500.02, -187500.02, -187500.02, -187500.02, -187500.02, -187500.02, 0.218, 0.994, -0.092, 02:40:11.071
156, 29788.30, 8361.21, -187500.02, -187500.02, -187500.02, -187500.02, -187500.02, -187500.02, 0.000, 0.000, 0.000, 02:40:11.071
157, 29768.23, 8335.70, -187500.02, -187500.02, -187500.02, -187500.02, -187500.02, -187500.02, 0.000, 0.000, 0.000, 02:40:11.071
158, 29750.37, 8337.27, -187500.02, -187500.02, -187500.02, -187500.02, -187500.02, -187500.02, 0.000, 0.000, 0.000, 02:40:11.071
159, 29765.48, 8360.87, -187500.02, -187500.02, -187500.02, -187500.02, -187500.02, -187500.02, 0.000, 0.000, 0.000, 02:40:11.071
160, 29782.56, 8352.42, -187500.02, -187500.02, -187500.02, -187500.02, -187500.02, -187500.02, 0.000, 0.000, 0.000, 02:40:11.071
161, 29772.77, 8354.30, -187500.02, -187500.02, -187500.02, -187500.02, -187500.02, -187500.02, 0.000, 0.000, 0.000, 02:40:11.071
162, 29744.85, 8334.99, -187500.02, -187500.02, -187500.02, -187500.02, -187500.02, -187500.02, 0.000, 0.000, 0.000, 02:40:11.071
163, 29750.26, 8320.03, -187500.02, -187500.02, -187500.02, -187500.02, -187500.02, -187500.02, 0.000, 0.000, 0.000, 02:40:11.071
164, 29784.39, 8327.34, -187500.02, -187500.02, -187500.02, -187500.02, -187500.02, -187500.02, 0.000, 0.000, 0.000, 02:40:11.072
165, 29783.56, 8367.87, -187500.02, -187500.02, -187500.02, -187500.02, -187500.02, -187500.02, 0.220, 0.990, -0.096, 02:40:11.072
166, 29748.85, 8345.92, -187500.02, -187500.02, -187500.02, -187500.02, -187500.02, -187500.02, 0.000, 0.000, 0.000, 02:40:11.072
167, 29748.34, 8321.31, -187500.02, -187500.02, -187500.02, -187500.02, -187500.02, -187500.02, 0.000, 0.000, 0.000, 02:40:11.072
168, 29772.95, 8353.07, -187500.02, -187500.02, -187500.02, -187500.02, -187500.02, -187500.02, 0.000, 0.000, 0.000, 02:40:11.072
169, 29774.69, 8357.09, -187500.02, -187500.02, -187500.02, -187500.02, -187500.02, -187500.02, 0.000, 0.000, 0.000, 02:40:11.072
170, 29755.07, 8333.51, -187500.02, -187500.02, -187500.02, -187500.02, -187500.02, -187500.02, 0.000, 0.000, 0.000, 02:40:11.072
171, 29755.74, 8333.45, -187500.02, -187500.02, -187500.02, -187500.02, -187500.02, -187500.02, 0.000, 0.000, 0.000, 02:40:11.072
172, 29773.75, 8361.85, -187500.02, -187500.02, -187500.02, -187500.02, -187500.02, -187500.02, 0.000, 0.000, 0.000, 02:40:11.072
173, 29775.52, 8358.52, -187500.02, -187500.02, -187500.02, -187500.02, -187500.02, -187500.02, 0.000, 0.000, 0.000, 02:40:11.072
174, 29756.03, 8330.34, -187500.02, -187500.02, -187500.02, -187500.02, -187500.02, -187500.02, 0.000, 0.000, 0.000, 02:40:11.073
175, 29750.42, 8321.62, -187500.02, -187500.02, -187500.02, -187500.02, -187500.02, -187500.02, 0.228, 0.992, -0.092, 02:40:11.073
176, 29776.28, 8340.67, -187500.02, -187500.02, -187500.02, -187500.02, -187500.02, -187500.02, 0.000, 0.000, 0.000, 02:40:11.073
177, 29772.68, 8363.58, -187500.02, -187500.02, -187500.02, -187500.02, -187500.02, -187500.02, 0.000, 0.000, 0.000, 02:40:11.073
178, 29752.65, 8353.36, -187500.02, -187500.02, -187500.02, -187500.02, -187500.02, -187500.02, 0.000, 0.000, 0.000, 02:40:11.073
179, 29743.09, 8310.67, -187500.02, -187500.02, -187500.02, -187500.02, -187500.02, -187500.02, 0.000, 0.000, 0.000, 02:40:11.073
180, 29777.51, 8344.55, -187500.02, -187500.02, -187500.02, -187500.02, -187500.02, -187500.02, 0.000, 0.000, 0.000, 02:40:11.073
181, 29781.53, 8363.42, -187500.02, -187500.02, -187500.02, -187500.02, -187500.02, -187500.02, 0.000, 0.000, 0.000, 02:40:11.073
182, 29754.69, 8342.88, -187500.02, -187500.02, -187500.02, -187500.02, -187500.02, -187500.02, 0.000, 0.000, 0.000, 02:40:11.074
183, 29745.30, 8329.67, -187500.02, -187500.02, -187500.02, -187500.02, -187500.02, -187500.02, 0.000, 0.000, 0.000, 02:40:11.074
184, 29773.51, 8320.41, -187500.02, -187500.02, -187500.02, -187500.02, -187500.02, -187500.02, 0.000, 0.000, 0.000, 02:40:11.074
185, 29796.19, 8336.55, -187500.02, -187500.02, -187500.02, -187500.02, -187500.02, -187500.02, 0.230, 0.994, -0.090, 02:40:11.074
186, 29765.28, 8355.42, -187500.02, -187500.02, -187500.02, -187500.02, -187500.02, -187500.02, 0.000, 0.000, 0.000, 02:40:11.074
187, 29721.90, 8330.90, -187500.02, -187500.02, -187500.02, -187500.02, -187500.02, -187500.02, 0.000, 0.000, 0.000, 02:40:11.075
188, 29743.87, 8317.89, -187500.02, -187500.02, -187500.02, -187500.02, -187500.02, -187500.02, 0.000, 0.000, 0.000, 02:40:11.075
189, 29776.93, 8347.66, -187500.02, -187500.02, -187500.02, -187500.02, -187500.02, -187500.02, 0.000, 0.000, 0.000, 02:40:11.075
190, 29761.15, 8348.89, -187500.02, -187500.02, -187500.02, -187500.02, -187500.02, -187500.02, 0.000, 0.000, 0.000, 02:40:11.075
191, 29737.34, 8338.94, -187500.02, -187500.02, -187500.02, -187500.02, -187500.02, -187500.02, 0.000, 0.000, 0.000, 02:40:11.075
192, 29747.44, 8317.89, -187500.02, -187500.02, -187500.02, -187500.02, -187500.02, -187500.02, 0.000, 0.000, 0.000, 02:40:11.075
193, 29793.98, 8338.25, -187500.02, -187500.02, -187500.02, -187500.02, -187500.02, -187500.02, 0.000, 0.000, 0.000, 02:40:11.075
194, 29794.20, 8358.10, -187500.02, -187500.02, -187500.02, -187500.02, -187500.02, -187500.02, 0.232, 0.992, -0.094, 02:40:11.075
195, 29761.73, 8344.33, -187500.02, -187500.02, -187500.02, -187500.02, -187500.02, -187500.02, 0.000, 0.000, 0.000, 02:40:11.076
196, 29742.10, 8313.82, -187500.02, -187500.02, -187500.02, -187500.02, -187500.02, -187500.02, 0.000, 0.000, 0.000, 02:40:11.076
197, 29774.62, 8343.75, -187500.02, -187500.02, -187500.02, -187500.02, -187500.02, -187500.02, 0.000, 0.000, 0.000, 02:40:11.076
198, 29776.54, 8372.36, -187500.02, -187500.02, -187500.02, -187500.02, -187500.02, -187500.02, 0.000, 0.000, 0.000, 02:40:11.076
199, 29754.19, 8334.29, -187500.02, -187500.02, -187500.02, -187500.02, -187500.02, -187500.02, 0.000, 0.000, 0.000, 02:40:11.076
200, 29729.36, 8295.80, -187500.02, -187500.02, -187500.02, -187500.02, -187500.02, -187500.02, 0.000, 0.000, 0.000, 02:40:11.076
201, 29767.36, 8328.68, -187500.02, -187500.02, -187500.02, -187500.02, -187500.02, -187500.02, 0.000, 0.000, 0.000, 02:40:11.076
202, 29775.85, 8366.08, -187500.02, -187500.02, -187500.02, -187500.02, -187500.02, -187500.02, 0.000, 0.000, 0.000, 02:40:11.076
203, 29764.65, 8343.97, -187500.02, -187500.02, -187500.02, -187500.02, -187500.02, -187500.02, 0.000, 0.000, 0.000, 02:40:11.076
204, 29735.11, 8318.13, -187500.02, -187500.02, -187500.02, -187500.02, -187500.02, -187500.02, 0.228, 0.990, -0.090, 02:40:11.077
205, 29752.25, 8309.26, -187500.02, -187500.02, -187500.02, -187500.02, -187500.02, -187500.02, 0.000, 0.000, 0.000, 02:40:11.077
206, 29763.25, 8325.91, -187500.02, -187500.02, -187500.02, -187500.02, -187500.02, -187500.02, 0.000, 0.000, 0.000, 02:40:11.077
207, 29757.55, 8339.03, -187500.02, -187500.02, -187500.02, -187500.02, -187500.02, -187500.02, 0.000, 0.000, 0.000, 02:40:11.077
208, 29736.56, 8316.77, -187500.02, -187500.02, -187500.02, -187500.02, -187500.02, -187500.02, 0.000, 0.000, 0.000, 02:40:11.077
209, 29761.66, 8322.85, -187500.02, -187500.02, -187500.02, -187500.02, -187500.02, -187500.02, 0.000, 0.000, 0.000, 02:40:11.077
210, 29779.76, 8344.84, -187500.02, -187500.02, -187500.02, -187500.02, -187500.02, -187500.02, 0.000, 0.000, 0.000, 02:40:11.077
211, 29771.72, 8342.88, -187500.02, -187500.02, -187500.02, -187500.02, -187500.02, -187500.02, 0.000, 0.000, 0.000, 02:40:11.077
212, 29741.07, 8328.35, -187500.02, -187500.02, -187500.02, -187500.02, -187500.02, -187500.02, 0.000, 0.000, 0.000, 02:40:11.077
213, 29740.18, 8300.52, -187500.02, -187500.02, -187500.02, -187500.02, -187500.02, -187500.02, 0.000, 0.000, 0.000, 02:40:11.078
214, 29757.77, 8352.11, -187500.02, -187500.02, -187500.02, -187500.02, -187500.02, -187500.02, 0.226, 0.990, -0.090, 02:40:11.078
215, 29745.28, 8366.44, -187500.02, -187500.02, -187500.02, -187500.02, -187500.02, -187500.02, 0.000, 0.000, 0.000, 02:40:11.078
216, 29728.69, 8319.50, -187500.02, -187500.02, -187500.02, -187500.02, -187500.02, -187500.02, 0.000, 0.000, 0.000, 02:40:11.078
217, 29730.37, 8305.97, -187500.02, -187500.02, -187500.02, -187500.02, -187500.02, -187500.02, 0.000, 0.000, 0.000, 02:40:11.078
218, 29758.31, 8338.30, -187500.02, -187500.02, -187500.02, -187500.02, -187500.02, -187500.02, 0.000, 0.000, 0.000, 02:40:11.078
219, 29765.35, 8336.82, -187500.02, -187500.02, -187500.02, -187500.02, -187500.02, -187500.02, 0.000, 0.000, 0.000, 02:40:11.078
220, 29754.55, 8322.65, -187500.02, -187500.02, -187500.02, -187500.02, -187500.02, -187500.02, 0.000, 0.000, 0.000, 02:40:11.079
221, 29728.47, 8312.01, -187500.02, -187500.02, -187500.02, -187500.02, -187500.02, -187500.02, 0.000, 0.000, 0.000, 02:40:11.079
222, 29775.99, 8325.31, -187500.02, -187500.02, -187500.02, -187500.02, -187500.02, -187500.02, 0.000, 0.000, 0.000, 02:40:11.079
223, 29782.02, 8344.44, -187500.02, -187500.02, -187500.02, -187500.02, -187500.02, -187500.02, 0.000, 0.000, 0.000, 02:40:11.079
224, 29764.99, 8335.37, -187500.02, -187500.02, -187500.02, -187500.02, -187500.02, -187500.02, 0.222, 0.990, -0.082, 02:40:11.079
225, 29750.42, 8317.89, -187500.02, -187500.02, -187500.02, -187500.02, -187500.02, -187500.02, 0.000, 0.000, 0.000, 02:40:11.544
226, 29774.20, 8314.20, -187500.02, -187500.02, -187500.02, -187500.02, -187500.02, -187500.02, 0.000, 0.000, 0.000, 02:40:11.544
227, 29776.14, 8342.77, -187500.02, -187500.02, -187500.02, -187500.02, -187500.02, -187500.02, 0.000, 0.000, 0.000, 02:40:11.544
228, 29757.17, 8332.44, -187500.02, -187500.02, -187500.02, -187500.02, -187500.02, -187500.02, 0.000, 0.000, 0.000, 02:40:11.544
229, 29726.90, 8293.30, -187500.02, -187500.02, -187500.02, -187500.02, -187500.02, -187500.02, 0.000, 0.000, 0.000, 02:40:11.544
230, 29755.29, 8276.20, -187500.02, -187500.02, -187500.02, -187500.02, -187500.02, -187500.02, 0.000, 0.000, 0.000, 02:40:11.545
231, 29779.43, 8334.92, -187500.02, -187500.02, -187500.02, -187500.02, -187500.02, -187500.02, 0.000, 0.000, 0.000, 02:40:11.545
232, 29766.96, 8361.05, -187500.02, -187500.02, -187500.02, -187500.02, -187500.02, -187500.02, 0.000, 0.000, 0.000, 02:40:11.545
233, 29728.56, 8324.88, -187500.02, -187500.02, -187500.02, -187500.02, -187500.02, -187500.02, 0.000, 0.000, 0.000, 02:40:11.545
234, 29752.47, 8321.98, -187500.02, -187500.02, -187500.02, -187500.02, -187500.02, -187500.02, 0.218, 0.990, -0.088, 02:40:11.545
235, 29791.59, 8334.61, -187500.02, -187500.02, -187500.02, -187500.02, -187500.02, -187500.02, 0.000, 0.000, 0.000, 02:40:11.545
236, 29771.23, 8337.67, -187500.02, -187500.02, -187500.02, -187500.02, -187500.02, -187500.02, 0.000, 0.000, 0.000, 02:40:11.546
237, 29731.04, 8317.15, -187500.02, -187500.02, -187500.02, -187500.02, -187500.02, -187500.02, 0.000, 0.000, 0.000, 02:40:11.546
238, 29745.50, 8296.25, -187500.02, -187500.02, -187500.02, -187500.02, -187500.02, -187500.02, 0.000, 0.000, 0.000, 02:40:11.546
239, 29773.17, 8322.94, -187500.02, -187500.02, -187500.02, -187500.02, -187500.02, -187500.02, 0.000, 0.000, 0.000, 02:40:11.546
240, 29768.90, 8318.63, -187500.02, -187500.02, -187500.02, -187500.02, -187500.02, -187500.02, 0.000, 0.000, 0.000, 02:40:11.546
241, 29753.75, 8316.95, -187500.02, -187500.02, -187500.02, -187500.02, -187500.02, -187500.02, 0.000, 0.000, 0.000, 02:40:11.546
242, 29738.39, 8299.56, -187500.02, -187500.02, -187500.02, -187500.02, -187500.02, -187500.02, 0.000, 0.000, 0.000, 02:40:11.546
243, 29764.65, 8314.20, -187500.02, -187500.02, -187500.02, -187500.02, -187500.02, -187500.02, 0.000, 0.000, 0.000, 02:40:11.546
244, 29772.21, 8336.71, -187500.02, -187500.02, -187500.02, -187500.02, -187500.02, -187500.02, 0.220, 0.986, -0.082, 02:40:11.547
245, 29752.67, 8329.33, -187500.02, -187500.02, -187500.02, -187500.02, -187500.02, -187500.02, 0.000, 0.000, 0.000, 02:40:11.547
246, 29746.17, 8309.98, -187500.02, -187500.02, -187500.02, -187500.02, -187500.02, -187500.02, 0.000, 0.000, 0.000, 02:40:11.547
247, 29778.98, 8333.54, -187500.02, -187500.02, -187500.02, -187500.02, -187500.02, -187500.02, 0.000, 0.000, 0.000, 02:40:11.547
248, 29788.93, 8338.21, -187500.02, -187500.02, -187500.02, -187500.02, -187500.02, -187500.02, 0.000, 0.000, 0.000, 02:40:11.547
249, 29759.25, 8295.54, -187500.02, -187500.02, -187500.02, -187500.02, -187500.02, -187500.02, 0.000, 0.000, 0.000, 02:40:11.547
250, 29741.07, 8295.09, -187500.02, -187500.02, -187500.02, -187500.02, -187500.02, -187500.02, 0.000, 0.000, 0.000, 02:40:11.547
251, 29774.67, 8348.71, -187500.02, -187500.02, -187500.02, -187500.02, -187500.02, -187500.02, 0.000, 0.000, 0.000, 02:40:11.547
252, 29782.71, 8352.85, -187500.02, -187500.02, -187500.02, -187500.02, -187500.02, -187500.02, 0.000, 0.000, 0.000, 02:40:11.548
253, 29768.48, 8330.18, -187500.02, -187500.02, -187500.02, -187500.02, -187500.02, -187500.02, 0.222, 0.992, -0.082, 02:40:11.548
254, 29747.11, 8297.06, -187500.02, -187500.02, -187500.02, -187500.02, -187500.02, -187500.02, 0.000, 0.000, 0.000, 02:40:11.548
255, 29755.74, 8298.04, -187500.02, -187500.02, -187500.02, -187500.02, -187500.02, -187500.02, 0.000, 0.000, 0.000, 02:40:11.548
0, 29776.37, 8311.54, -187500.02, -187500.02, -187500.02, -187500.02, -187500.02, -187500.02, 0.000, 0.000, 0.000, 02:40:11.548
1, 29742.93, 8310.02, -187500.02, -187500.02, -187500.02, -187500.02, -187500.02, -187500.02, 0.000, 0.000, 0.000, 02:40:11.548
2, 29720.85, 8283.29, -187500.02, -187500.02, -187500.02, -187500.02, -187500.02, -187500.02, 0.000, 0.000, 0.000, 02:40:11.548
3, 29758.69, 8295.83, -187500.02, -187500.02, -187500.02, -187500.02, -187500.02, -187500.02, 0.000, 0.000, 0.000, 02:40:11.549
4, 29783.10, 8341.58, -187500.02, -187500.02, -187500.02, -187500.02, -187500.02, -187500.02, 0.000, 0.000, 0.000, 02:40:11.549
5, 29768.57, 8340.64, -187500.02, -187500.02, -187500.02, -187500.02, -187500.02, -187500.02, 0.000, 0.000, 0.000, 02:40:11.549
6, 29737.81, 8296.16, -187500.02, -187500.02, -187500.02, -187500.02, -187500.02, -187500.02, 0.000, 0.000, 0.000, 02:40:11.549
7, 29742.24, 8271.82, -187500.02, -187500.02, -187500.02, -187500.02, -187500.02, -187500.02, 0.222, 0.990, -0.080, 02:40:11.549
8, 29772.03, 8315.32, -187500.02, -187500.02, -187500.02, -187500.02, -187500.02, -187500.02, 0.000, 0.000, 0.000, 02:40:11.549
9, 29772.01, 8333.15, -187500.02, -187500.02, -187500.02, -187500.02, -187500.02, -187500.02, 0.000, 0.000, 0.000, 02:40:11.549
10, 29755.27, 8310.47, -187500.02, -187500.02, -187500.02, -187500.02, -187500.02, -187500.02, 0.000, 0.000, 0.000, 02:40:11.549
11, 29751.47, 8308.52, -187500.02, -187500.02, -187500.02, -187500.02, -187500.02, -187500.02, 0.000, 0.000, 0.000, 02:40:11.550
12, 29780.05, 8324.37, -187500.02, -187500.02, -187500.02, -187500.02, -187500.02, -187500.02, 0.000, 0.000, 0.000, 02:40:11.550
13, 29787.41, 8329.24, -187500.02, -187500.02, -187500.02, -187500.02, -187500.02, -187500.02, 0.000, 0.000, 0.000, 02:40:11.550
14, 29759.98, 8309.91, -187500.02, -187500.02, -187500.02, -187500.02, -187500.02, -187500.02, 0.000, 0.000, 0.000, 02:40:11.550
15, 29749.32, 8292.76, -187500.02, -187500.02, -187500.02, -187500.02, -187500.02, -187500.02, 0.000, 0.000, 0.000, 02:40:11.550
16, 29783.52, 8315.18, -187500.02, -187500.02, -187500.02, -187500.02, -187500.02, -187500.02, 0.000, 0.000, 0.000, 02:40:11.550
17, 29782.18, 8347.06, -187500.02, -187500.02, -187500.02, -187500.02, -187500.02, -187500.02, 0.212, 1.014, -0.090, 02:40:11.550
18, 29773.62, 8314.80, -187500.02, -187500.02, -187500.02, -187500.02, -187500.02, -187500.02, 0.000, 0.000, 0.000, 02:40:11.550
19, 29751.36, 8320.06, -187500.02, -187500.02, -187500.02, -187500.02, -187500.02, -187500.02, 0.000, 0.000, 0.000, 02:40:11.551
20, 29772.79, 8341.87, -187500.02, -187500.02, -187500.02, -187500.02, -187500.02, -187500.02, 0.000, 0.000, 0.000, 02:40:11.551
21, 29771.38, 8364.04, -187500.02, -187500.02, -187500.02, -187500.02, -187500.02, -187500.02, 0.000, 0.000, 0.000, 02:40:11.551
22, 29780.86, 8344.20, -187500.02, -187500.02, -187500.02, -187500.02, -187500.02, -187500.02, 0.000, 0.000, 0.000, 02:40:11.551
23, 29773.75, 8342.65, -187500.02, -187500.02, -187500.02, -187500.02, -187500.02, -187500.02, 0.000, 0.000, 0.000, 02:40:11.551
24, 29796.33, 8344.04, -187500.02, -187500.02, -187500.02, -187500.02, -187500.02, -187500.02, 0.000, 0.000, 0.000, 02:40:11.551
25, 29818.81, 8373.77, -187500.02, -187500.02, -187500.02, -187500.02, -187500.02, -187500.02, 0.000, 0.000, 0.000, 02:40:11.552
26, 29793.55, 8373.16, -187500.02, -187500.02, -187500.02, -187500.02, -187500.02, -187500.02, 0.000, 0.000, 0.000, 02:40:11.552
27, 29774.60, 8354.81, -187500.02, -187500.02, -187500.02, -187500.02, -187500.02, -187500.02, 0.222, 1.002, -0.082, 02:40:11.552
28, 29783.07, 8339.46, -187500.02, -187500.02, -187500.02, -187500.02, -187500.02, -187500.02, 0.000, 0.000, 0.000, 02:40:11.552
29, 29797.58, 8339.53, -187500.02, -187500.02, -187500.02, -187500.02, -187500.02, -187500.02, 0.000, 0.000, 0.000, 02:40:11.552
30, 29793.24, 8381.64, -187500.02, -187500.02, -187500.02, -187500.02, -187500.02, -187500.02, 0.000, 0.000, 0.000, 02:40:11.552
31, 29779.79, 8384.23, -187500.02, -187500.02, -187500.02, -187500.02, -187500.02, -187500.02, 0.000, 0.000, 0.000, 02:40:11.552
32, 29788.37, 8363.49, -187500.02, -187500.02, -187500.02, -187500.02, -187500.02, -187500.02, 0.000, 0.000, 0.000, 02:40:11.552
33, 29806.92, 8387.85, -187500.02, -187500.02, -187500.02, -187500.02, -187500.02, -187500.02, 0.000, 0.000, 0.000, 02:40:11.553
34, 29799.23, 8389.48, -187500.02, -187500.02, -187500.02, -187500.02, -187500.02, -187500.02, 0.000, 0.000, 0.000, 02:40:11.553
35, 29775.05, 8369.83, -187500.02, -187500.02, -187500.02, -187500.02, -187500.02, -187500.02, 0.000, 0.000, 0.000, 02:40:11.553
36, 29771.99, 8340.20, -187500.02, -187500.02, -187500.02, -187500.02, -187500.02, -187500.02, 0.000, 0.000, 0.000, 02:40:11.553
37, 29800.31, 8387.85, -187500.02, -187500.02, -187500.02, -187500.02, -187500.02, -187500.02, 0.228, 1.000, -0.082, 02:40:11.553
38, 29807.08, 8401.19, -187500.02, -187500.02, -187500.02, -187500.02, -187500.02, -187500.02, 0.000, 0.000, 0.000, 02:40:11.553
39, 29788.66, 8378.44, -187500.02, -187500.02, -187500.02, -187500.02, -187500.02, -187500.02, 0.000, 0.000, 0.000, 02:40:11.553
40, 29764.16, 8349.11, -187500.02, -187500.02, -187500.02, -187500.02, -187500.02, -187500.02, 0.000, 0.000, 0.000, 02:40:11.553
41, 29789.93, 8358.61, -187500.02, -187500.02, -187500.02, -187500.02, -187500.02, -187500.02, 0.000, 0.000, 0.000, 02:40:11.554
42, 29801.60, 8385.66, -187500.02, -187500.02, -187500.02, -187500.02, -187500.02, -187500.02, 0.000, 0.000, 0.000, 02:40:11.554
43, 29788.37, 8379.53, -187500.02, -187500.02, -187500.02, -187500.02, -187500.02, -187500.02, 0.000, 0.000, 0.000, 02:40:11.554
44, 29764.16, 8371.49, -187500.02, -187500.02, -187500.02, -187500.02, -187500.02, -187500.02, 0.000, 0.000, 0.000, 02:40:11.554
45, 29796.01, 8380.81, -187500.02, -187500.02, -187500.02, -187500.02, -187500.02, -187500.02, 0.000, 0.000, 0.000, 02:40:11.554
46, 29806.32, 8391.56, -187500.02, -187500.02, -187500.02, -187500.02, -187500.02, -187500.02, 0.000, 0.000, 0.000, 02:40:11.554
47, 29781.44, 8368.69, -187500.02, -187500.02, -187500.02, -187500.02, -187500.02, -187500.02, 0.228, 0.996, -0.084, 02:40:11.554
48, 29763.76, 8342.10, -187500.02, -187500.02, -187500.02, -187500.02, -187500.02, -187500.02, 0.000, 0.000, 0.000, 02:40:11.554
49, 29782.63, 8369.36, -187500.02, -187500.02, -187500.02, -187500.02, -187500.02, -187500.02, 0.000, 0.000, 0.000, 02:40:11.554
50, 29807.79, 8397.13, -187500.02, -187500.02, -187500.02, -187500.02, -187500.02, -187500.02, 0.000, 0.000, 0.000, 02:40:11.555
51, 29803.23, 8394.87, -187500.02, -187500.02, -187500.02, -187500.02, -187500.02, -187500.02, 0.000, 0.000, 0.000, 02:40:11.555
52, 29767.31, 8361.47, -187500.02, -187500.02, -187500.02, -187500.02, -187500.02, -187500.02, 0.000, 0.000, 0.000, 02:40:11.555
53, 29774.78, 8365.16, -187500.02, -187500.02, -187500.02, -187500.02, -187500.02, -187500.02, 0.000, 0.000, 0.000, 02:40:11.555
54, 29796.86, 8384.27, -187500.02, -187500.02, -187500.02, -187500.02, -187500.02, -187500.02, 0.000, 0.000, 0.000, 02:40:11.555
55, 29796.44, 8389.59, -187500.02, -187500.02, -187500.02, -187500.02, -187500.02, -187500.02, 0.000, 0.000, 0.000, 02:40:11.555
56, 29768.21, 8366.64, -187500.02, -187500.02, -187500.02, -187500.02, -187500.02, -187500.02, 0.000, 0.000, 0.000, 02:40:11.555
57, 29772.68, 8346.83, -187500.02, -187500.02, -187500.02, -187500.02, -187500.02, -187500.02, 0.226, 0.994, -0.086, 02:40:11.555
58, 29793.15, 8371.85, -187500.02, -187500.02, -187500.02, -187500.02, -187500.02, -187500.02, 0.000, 0.000, 0.000, 02:40:11.555
59, 29798.34, 8363.15, -187500.02, -187500.02, -187500.02, -187500.02, -187500.02, -187500.02, 0.000, 0.000, 0.000, 02:40:11.556
60, 29771.90, 8387.33, -187500.02, -187500.02, -187500.02, -187500.02, -187500.02, -187500.02, 0.000, 0.000, 0.000, 02:40:11.556
61, 29754.89, 8363.20, -187500.02, -187500.02, -187500.02, -187500.02, -187500.02, -187500.02, 0.000, 0.000, 0.000, 02:40:11.556
62, 29798.29, 8377.50, -187500.02, -187500.02, -187500.02, -187500.02, -187500.02, -187500.02, 0.000, 0.000, 0.000, 02:40:11.556
63, 29793.58, 8393.04, -187500.02, -187500.02, -187500.02, -187500.02, -187500.02, -187500.02, 0.000, 0.000, 0.000, 02:40:11.556
64, 29769.97, 8376.45, -187500.02, -187500.02, -187500.02, -187500.02, -187500.02, -187500.02, 0.000, 0.000, 0.000, 02:40:11.556
65, 29752.92, 8347.10, -187500.02, -187500.02, -187500.02, -187500.02, -187500.02, -187500.02, 0.000, 0.000, 0.000, 02:40:11.557
66, 29787.86, 8357.54, -187500.02, -187500.02, -187500.02, -187500.02, -187500.02, -187500.02, 0.228, 0.992, -0.086, 02:40:11.557
67, 29798.70, 8389.57, -187500.02, -187500.02, -187500.02, -187500.02, -187500.02, -187500.02, 0.000, 0.000, 0.000, 02:40:11.557
68, 29784.99, 8379.53, -187500.02, -187500.02, -187500.02, -187500.02, -187500.02, -187500.02, 0.000, 0.000, 0.000, 02:40:11.557
69, 29757.08, 8348.29, -187500.02, -187500.02, -187500.02, -187500.02, -187500.02, -187500.02, 0.000, 0.000, 0.000, 02:40:11.557
70, 29780.17, 8350.70, -187500.02, -187500.02, -187500.02, -187500.02, -187500.02, -187500.02, 0.000, 0.000, 0.000, 02:40:11.557
71, 29800.13, 8389.68, -187500.02, -187500.02, -187500.02, -187500.02, -187500.02, -187500.02, 0.000, 0.000, 0.000, 02:40:11.557
72, 29786.98, 8401.51, -187500.02, -187500.02, -187500.02, -187500.02, -187500.02, -187500.02, 0.000, 0.000, 0.000, 02:40:11.557
73, 29748.74, 8346.61, -187500.02, -187500.02, -187500.02, -187500.02, -187500.02, -187500.02, 0.000, 0.000, 0.000, 02:40:11.558
74, 29776.17, 8331.75, -187500.02, -187500.02, -187500.02, -187500.02, -187500.02, -187500.02, 0.000, 0.000, 0.000, 02:40:11.558
75, 29798.79, 8357.32, -187500.02, -187500.02, -187500.02, -187500.02, -187500.02, -187500.02, 0.000, 0.000, 0.000, 02:40:11.558
76, 29782.04, 8384.14, -187500.02, -187500.02, -187500.02, -187500.02, -187500.02, -187500.02, 0.224, 0.992, -0.088, 02:40:11.558
77, 29752.25, 8372.94, -187500.02, -187500.02, -187500.02, -187500.02, -187500.02, -187500.02, 0.000, 0.000, 0.000, 02:40:11.558
78, 29764.79, 8355.95, -187500.02, -187500.02, -187500.02, -187500.02, -187500.02, -187500.02, 0.000, 0.000, 0.000, 02:40:11.558
79, 29798.41, 8370.17, -187500.02, -187500.02, -187500.02, -187500.02, -187500.02, -187500.02, 0.000, 0.000, 0.000, 02:40:11.558
80, 29786.52, 8368.54, -187500.02, -187500.02, -187500.02, -187500.02, -187500.02, -187500.02, 0.000, 0.000, 0.000, 02:40:11.558
81, 29760.01, 8365.77, -187500.02, -187500.02, -187500.02, -187500.02, -187500.02, -187500.02, 0.000, 0.000, 0.000, 02:40:11.558
82, 29772.37, 8367.53, -187500.02, -187500.02, -187500.02, -187500.02, -187500.02, -187500.02, 0.000, 0.000, 0.000, 02:40:11.559
83, 29806.52, 8385.73, -187500.02, -187500.02, -187500.02, -187500.02, -187500.02, -187500.02, 0.000, 0.000, 0.000, 02:40:11.559
84, 29792.51, 8375.31, -187500.02, -187500.02, -187500.02, -187500.02, -187500.02, -187500.02, 0.000, 0.000, 0.000, 02:40:11.559
85, 29777.13, 8351.97, -187500.02, -187500.02, -187500.02, -187500.02, -187500.02, -187500.02, 0.000, 0.000, 0.000, 02:40:11.559
86, 29758.89, 8362.91, -187500.02, -187500.02, -187500.02, -187500.02, -187500.02, -187500.02, 0.220, 0.994, -0.088, 02:40:11.559
87, 29785.80, 8380.99, -187500.02, -187500.02, -187500.02, -187500.02, -187500.02, -187500.02, 0.000, 0.000, 0.000, 02:40:11.559
88, 29796.53, 8392.10, -187500.02, -187500.02, -187500.02, -187500.02, -187500.02, -187500.02, 0.000, 0.000, 0.000, 02:40:11.559
89, 29785.15, 8384.05, -187500.02, -187500.02, -187500.02, -187500.02, -187500.02, -187500.02, 0.000, 0.000, 0.000, 02:40:11.560
90, 29758.91, 8362.61, -187500.02, -187500.02, -187500.02, -187500.02, -187500.02, -187500.02, 0.000, 0.000, 0.000, 02:40:12.024
91, 29800.22, 8373.63, -187500.02, -187500.02, -187500.02, -187500.02, -187500.02, -187500.02, 0.000, 0.000, 0.000, 02:40:12.024
92, 29806.50, 8396.83, -187500.02, -187500.02, -187500.02, -187500.02, -187500.02, -187500.02, 0.000, 0.000, 0.000, 02:40:12.024
93, 29789.93, 8376.41, -187500.02, -187500.02, -187500.02, -187500.02, -187500.02, -187500.02, 0.000, 0.000, 0.000, 02:40:12.025
94, 29774.45, 8347.95, -187500.02, -187500.02, -187500.02, -187500.02, -187500.02, -187500.02, 0.000, 0.000, 0.000, 02:40:12.025
95, 29791.03, 8349.94, -187500.02, -187500.02, -187500.02, -187500.02, -187500.02, -187500.02, 0.000, 0.000, 0.000, 02:40:12.025
96, 29798.94, 8375.27, -187500.02, -187500.02, -187500.02, -187500.02, -187500.02, -187500.02, 0.214, 0.988, -0.088, 02:40:12.025
97, 29782.60, 8381.68, -187500.02, -187500.02, -187500.02, -187500.02, -187500.02, -187500.02, 0.000, 0.000, 0.000, 02:40:12.025
98, 29767.78, 8360.31, -187500.02, -187500.02, -187500.02, -187500.02, -187500.02, -187500.02, 0.000, 0.000, 0.000, 02:40:12.025
99, 29777.71, 8347.21, -187500.02, -187500.02, -187500.02, -187500.02, -187500.02, -187500.02, 0.000, 0.000, 0.000, 02:40:12.025
100, 29795.16, 8363.44, -187500.02, -187500.02, -187500.02, -187500.02, -187500.02, -187500.02, 0.000, 0.000, 0.000, 02:40:12.026
101, 29792.37, 8370.42, -187500.02, -187500.02, -187500.02, -187500.02, -187500.02, -187500.02, 0.000, 0.000, 0.000, 02:40:12.026
102, 29770.04, 8366.84, -187500.02, -187500.02, -187500.02, -187500.02, -187500.02, -187500.02, 0.000, 0.000, 0.000, 02:40:12.026
103, 29767.22, 8339.73, -187500.02, -187500.02, -187500.02, -187500.02, -187500.02, -187500.02, 0.000, 0.000, 0.000, 02:40:12.026
104, 29806.05, 8376.12, -187500.02, -187500.02, -187500.02, -187500.02, -187500.02, -187500.02, 0.000, 0.000, 0.000, 02:40:12.026
105, 29795.57, 8390.11, -187500.02, -187500.02, -187500.02, -187500.02, -187500.02, -187500.02, 0.000, 0.000, 0.000, 02:40:12.026
106, 29768.39, 8378.08, -187500.02, -187500.02, -187500.02, -187500.02, -187500.02, -187500.02, 0.218, 0.986, -0.088, 02:40:12.026
107, 29747.64, 8352.51, -187500.02, -187500.02, -187500.02, -187500.02, -187500.02, -187500.02, 0.000, 0.000, 0.000, 02:40:12.026
108, 29779.70, 8350.92, -187500.02, -187500.02, -187500.02, -187500.02, -187500.02, -187500.02, 0.000, 0.000, 0.000, 02:40:12.027
109, 29785.96, 8371.13, -187500.02, -187500.02, -187500.02, -187500.02, -187500.02, -187500.02, 0.000, 0.000, 0.000, 02:40:12.027
110, 29773.73, 8352.96, -187500.02, -187500.02, -187500.02, -187500.02, -187500.02, -187500.02, 0.000, 0.000, 0.000, 02:40:12.027
111, 29755.69, 8339.46, -187500.02, -187500.02, -187500.02, -187500.02, -187500.02, -187500.02, 0.000, 0.000, 0.000, 02:40:12.027
112, 29787.07, 8355.71, -187500.02, -187500.02, -187500.02, -187500.02, -187500.02, -187500.02, 0.000, 0.000, 0.000, 02:40:12.027
113, 29798.90, 8358.41, -187500.02, -187500.02, -187500.02, -187500.02, -187500.02, -187500.02, 0.000, 0.000, 0.000, 02:40:12.027
114, 29780.26, 8349.67, -187500.02, -187500.02, -187500.02, -187500.02, -187500.02, -187500.02, 0.000, 0.000, 0.000, 02:40:12.028
115, 29762.82, 8348.24, -187500.02, -187500.02, -187500.02, -187500.02, -187500.02, -187500.02, 0.000, 0.000, 0.000, 02:40:12.028
116, 29797.38, 8351.89, -187500.02, -187500.02, -187500.02, -187500.02, -187500.02, -187500.02, 0.216, 0.990, -0.094, 02:40:12.028
117, 29810.23, 8372.02, -187500.02, -187500.02, -187500.02, -187500.02, -187500.02, -187500.02, 0.000, 0.000, 0.000, 02:40:12.028
118, 29783.01, 8384.23, -187500.02, -187500.02, -187500.02, -187500.02, -187500.02, -187500.02, 0.000, 0.000, 0.000, 02:40:12.028
119, 29742.55, 8340.26, -187500.02, -187500.02, -187500.02, -187500.02, -187500.02, -187500.02, 0.000, 0.000, 0.000, 02:40:12.028
120, 29764.70, 8333.47, -187500.02, -187500.02, -187500.02, -187500.02, -187500.02, -187500.02, 0.000, 0.000, 0.000, 02:40:12.028
121, 29776.72, 8372.81, -187500.02, -187500.02, -187500.02, -187500.02, -187500.02, -187500.02, 0.000, 0.000, 0.000, 02:40:12.029
122, 29790.27, 8364.45, -187500.02, -187500.02, -187500.02, -187500.02, -187500.02, -187500.02, 0.000, 0.000, 0.000, 02:40:12.029
123, 29782.60, 8346.92, -187500.02, -187500.02, -187500.02, -187500.02, -187500.02, -187500.02, 0.000, 0.000, 0.000, 02:40:12.029
124, 29781.51, 8371.60, -187500.02, -187500.02, -187500.02, -187500.02, -187500.02, -187500.02, 0.000, 0.000, 0.000, 02:40:12.029
125, 29790.09, 8381.88, -187500.02, -187500.02, -187500.02, -187500.02, -187500.02, -187500.02, 0.216, 0.996, -0.092, 02:40:12.029
126, 29776.01, 8366.86, -187500.02, -187500.02, -187500.02, -187500.02, -187500.02, -187500.02, 0.000, 0.000, 0.000, 02:40:12.029
127, 29749.41, 8350.16, -187500.02, -187500.02, -187500.02, -187500.02, -187500.02, -187500.02, 0.000, 0.000, 0.000, 02:40:12.029
128, 29759.31, 8346.66, -187500.02, -187500.02, -187500.02, -187500.02, -187500.02, -187500.02, 0.000, 0.000, 0.000, 02:40:12.029
129, 29786.80, 8371.20, -187500.02, -187500.02, -187500.02, -187500.02, -187500.02, -187500.02, 0.000, 0.000, 0.000, 02:40:12.030
130, 29774.94, 8366.55, -187500.02, -187500.02, -187500.02, -187500.02, -187500.02, -187500.02, 0.000, 0.000, 0.000, 02:40:12.030
131, 29765.53, 8345.45, -187500.02, -187500.02, -187500.02, -187500.02, -187500.02, -187500.02, 0.000, 0.000, 0.000, 02:40:12.030
132, 29764.16, 8325.49, -187500.02, -187500.02, -187500.02, -187500.02, -187500.02, -187500.02, 0.000, 0.000, 0.000, 02:40:12.030
133, 29774.56, 8355.39, -187500.02, -187500.02, -187500.02, -187500.02, -187500.02, -187500.02, 0.000, 0.000, 0.000, 02:40:12.030
134, 29782.42, 8373.39, -187500.02, -187500.02, -187500.02, -187500.02, -187500.02, -187500.02, 0.000, 0.000, 0.000, 02:40:12.030
135, 29773.37, 8366.50, -187500.02, -187500.02, -187500.02, -187500.02, -187500.02, -187500.02, 0.222, 0.998, -0.094, 02:40:12.031
136, 29762.75, 8344.96, -187500.02, -187500.02, -187500.02, -187500.02, -187500.02, -187500.02, 0.000, 0.000, 0.000, 02:40:12.031
137, 29786.13, 8363.98, -187500.02, -187500.02, -187500.02, -187500.02, -187500.02, -187500.02, 0.000, 0.000, 0.000, 02:40:12.031
138, 29783.21, 8376.07, -187500.02, -187500.02, -187500.02, -187500.02, -187500.02, -187500.02, 0.000, 0.000, 0.000, 02:40:12.031
139, 29757.39, 8352.82, -187500.02, -187500.02, -187500.02, -187500.02, -187500.02, -187500.02, 0.000, 0.000, 0.000, 02:40:12.031
140, 29735.49, 8318.69, -187500.02, -187500.02, -187500.02, -187500.02, -187500.02, -187500.02, 0.000, 0.000, 0.000, 02:40:12.031
141, 29766.15, 8342.77, -187500.02, -187500.02, -187500.02, -187500.02, -187500.02, -187500.02, 0.000, 0.000, 0.000, 02:40:12.031
142, 29786.22, 8354.88, -187500.02, -187500.02, -187500.02, -187500.02, -187500.02, -187500.02, 0.000, 0.000, 0.000, 02:40:12.032
143, 29768.01, 8358.19, -187500.02, -187500.02, -187500.02, -187500.02, -187500.02, -187500.02, 0.000, 0.000, 0.000, 02:40:12.032
144, 29754.82, 8342.50, -187500.02, -187500.02, -187500.02, -187500.02, -187500.02, -187500.02, 0.000, 0.000, 0.000, 02:40:12.032
145, 29772.81, 8330.58, -187500.02, -187500.02, -187500.02, -187500.02, -187500.02, -187500.02, 0.230, 0.996, -0.082, 02:40:12.032
146, 29791.12, 8365.16, -187500.02, -187500.02, -187500.02, -187500.02, -187500.02, -187500.02, 0.000, 0.000, 0.000, 02:40:12.032
147, 29782.89, 8356.98, -187500.02, -187500.02, -187500.02, -187500.02, -187500.02, -187500.02, 0.000, 0.000, 0.000, 02:40:12.032
148, 29753.43, 8333.29, -187500.02, -187500.02, -187500.02, -187500.02, -187500.02, -187500.02, 0.000, 0.000, 0.000, 02:40:12.032
149, 29752.36, 8336.73, -187500.02, -187500.02, -187500.02, -187500.02, -187500.02, -187500.02, 0.000, 0.000, 0.000, 02:40:12.032
150, 29793.94, 8351.91, -187500.02, -187500.02, -187500.02, -187500.02, -187500.02, -187500.02, 0.000, 0.000, 0.000, 02:40:12.033
151, 29789.06, 8360.42, -187500.02, -187500.02, -187500.02, -187500.02, -187500.02, -187500.02, 0.000, 0.000, 0.000, 02:40:12.033
152, 29765.91, 8355.17, -187500.02, -187500.02, -187500.02, -187500.02, -187500.02, -187500.02, 0.000, 0.000, 0.000, 02:40:12.033
153, 29759.38, 8332.53, -187500.02, -187500.02, -187500.02, -187500.02, -187500.02, -187500.02, 0.000, 0.000, 0.000, 02:40:12.033
154, 29790.36, 8358.48, -187500.02, -187500.02, -187500.02, -187500.02, -187500.02, -187500.02, 0.000, 0.000, 0.000, 02:40:12.033
155, 29797.73, 8373.59, -187500.02, -187500.02, -187500.02, -187500.02, -187500.02, -187500.02, 0.226, 0.990, -0.080, 02:40:12.033
156, 29769.51, 8356.22, -187500.02, -187500.02, -187500.02, -187500.02, -187500.02, -187500.02, 0.000, 0.000, 0.000, 02:40:12.033
157, 29755.22, 8318.96, -187500.02, -187500.02, -187500.02, -187500.02, -187500.02, -187500.02, 0.000, 0.000, 0.000, 02:40:12.033
158, 29788.50, 8336.37, -187500.02, -187500.02, -187500.02, -187500.02, -187500.02, -187500.02, 0.000, 0.000, 0.000, 02:40:12.034
159, 29794.05, 8356.74, -187500.02, -187500.02, -187500.02, -187500.02, -187500.02, -187500.02, 0.000, 0.000, 0.000, 02:40:12.034
160, 29770.29, 8352.65, -187500.02, -187500.02, -187500.02, -187500.02, -187500.02, -187500.02, 0.000, 0.000, 0.000, 02:40:12.034
161, 29744.34, 8311.90, -187500.02, -187500.02, -187500.02, -187500.02, -187500.02, -187500.02, 0.000, 0.000, 0.000, 02:40:12.034
162, 29760.14, 8334.90, -187500.02, -187500.02, -187500.02, -187500.02, -187500.02, -187500.02, 0.000, 0.000, 0.000, 02:40:12.034
163, 29772.95, 8339.91, -187500.02, -187500.02, -187500.02, -187500.02, -187500.02, -187500.02, 0.000, 0.000, 0.000, 02:40:12.034
164, 29769.37, 8336.60, -187500.02, -187500.02, -187500.02, -187500.02, -187500.02, -187500.02, 0.000, 0.000, 0.000, 02:40:12.034
165, 29760.47, 8346.12, -187500.02, -187500.02, -187500.02, -187500.02, -187500.02, -187500.02, 0.222, 0.988, -0.082, 02:40:12.034
166, 29767.29, 8343.55, -187500.02, -187500.02, -187500.02, -187500.02, -187500.02, -187500.02, 0.000, 0.000, 0.000, 02:40:12.035
167, 29775.63, 8338.47, -187500.02, -187500.02, -187500.02, -187500.02, -187500.02, -187500.02, 0.000, 0.000, 0.000, 02:40:12.035
168, 29774.67, 8345.13, -187500.02, -187500.02, -187500.02, -187500.02, -187500.02, -187500.02, 0.000, 0.000, 0.000, 02:40:12.035
169, 29757.95, 8326.81, -187500.02, -187500.02, -187500.02, -187500.02, -187500.02, -187500.02, 0.000, 0.000, 0.000, 02:40:12.035
170, 29774.60, 8346.68, -187500.02, -187500.02, -187500.02, -187500.02, -187500.02, -187500.02, 0.000, 0.000, 0.000, 02:40:12.035
171, 29789.04, 8358.39, -187500.02, -187500.02, -187500.02, -187500.02, -187500.02, -187500.02, 0.000, 0.000, 0.000, 02:40:12.035
172, 29779.50, 8348.62, -187500.02, -187500.02, -187500.02, -187500.02, -187500.02, -187500.02, 0.000, 0.000, 0.000, 02:40:12.035
173, 29753.12, 8349.87, -187500.02, -187500.02, -187500.02, -187500.02, -187500.02, -187500.02, 0.000, 0.000, 0.000, 02:40:12.035
174, 29768.19, 8342.74, -187500.02, -187500.02, -187500.02, -187500.02, -187500.02, -187500.02, 0.000, 0.000, 0.000, 02:40:12.036
175, 29790.36, 8360.74, -187500.02, -187500.02, -187500.02, -187500.02, -187500.02, -187500.02, 0.220, 0.990, -0.084, 02:40:12.036
176, 29777.62, 8337.92, -187500.02, -187500.02, -187500.02, -187500.02, -187500.02, -187500.02, 0.000, 0.000, 0.000, 02:40:12.036
177, 29749.34, 8322.96, -187500.02, -187500.02, -187500.02, -187500.02, -187500.02, -187500.02, 0.000, 0.000, 0.000, 02:40:12.036
178, 29756.94, 8311.18, -187500.02, -187500.02, -187500.02, -187500.02, -187500.02, -187500.02, 0.000, 0.000, 0.000, 02:40:12.036
179, 29796.62, 8342.14, -187500.02, -187500.02, -187500.02, -187500.02, -187500.02, -187500.02, 0.000, 0.000, 0.000, 02:40:12.036
180, 29785.22, 8325.49, -187500.02, -187500.02, -187500.02, -187500.02, -187500.02, -187500.02, 0.000, 0.000, 0.000, 02:40:12.036
181, 29768.74, 8349.29, -187500.02, -187500.02, -187500.02, -187500.02, -187500.02, -187500.02, 0.000, 0.000, 0.000, 02:40:12.036
182, 29747.96, 8338.65, -187500.02, -187500.02, -187500.02, -187500.02, -187500.02, -187500.02, 0.000, 0.000, 0.000, 02:40:12.037
183, 29785.22, 8345.40, -187500.02, -187500.02, -187500.02, -187500.02, -187500.02, -187500.02, 0.000, 0.000, 0.000, 02:40:12.037
184, 29794.83, 8344.64, -187500.02, -187500.02, -187500.02, -187500.02, -187500.02, -187500.02, 0.220, 0.996, -0.086, 02:40:12.037
185, 29781.60, 8348.55, -187500.02, -187500.02, -187500.02, -187500.02, -187500.02, -187500.02, 0.000, 0.000, 0.000, 02:40:12.037
186, 29755.09, 8322.60, -187500.02, -187500.02, -187500.02, -187500.02, -187500.02, -187500.02, 0.000, 0.000, 0.000, 02:40:12.037
187, 29779.07, 8329.38, -187500.02, -187500.02, -187500.02, -187500.02, -187500.02, -187500.02, 0.000, 0.000, 0.000, 02:40:12.037
188, 29796.13, 8352.58, -187500.02, -187500.02, -187500.02, -187500.02, -187500.02, -187500.02, 0.000, 0.000, 0.000, 02:40:12.037
189, 29780.08, 8353.27, -187500.02, -187500.02, -187500.02, -187500.02, -187500.02, -187500.02, 0.000, 0.000, 0.000, 02:40:12.038
190, 29767.09, 8322.43, -187500.02, -187500.02, -187500.02, -187500.02, -187500.02, -187500.02, 0.000, 0.000, 0.000, 02:40:12.038
191, 29784.68, 8326.90, -187500.02, -187500.02, -187500.02, -187500.02, -187500.02, -187500.02, 0.000, 0.000, 0.000, 02:40:12.038
192, 29802.32, 8345.31, -187500.02, -187500.02, -187500.02, -187500.02, -187500.02, -187500.02, 0.000, 0.000, 0.000, 02:40:12.038
193, 29785.06, 8362.03, -187500.02, -187500.02, -187500.02, -187500.02, -187500.02, -187500.02, 0.000, 0.000, 0.000, 02:40:12.038
194, 29750.57, 8331.70, -187500.02, -187500.02, -187500.02, -187500.02, -187500.02, -187500.02, 0.214, 0.994, -0.082, 02:40:12.038
195, 29761.44, 8298.80, -187500.02, -187500.02, -187500.02, -187500.02, -187500.02, -187500.02, 0.000, 0.000, 0.000, 02:40:12.038
196, 29781.33, 8327.61, -187500.02, -187500.02, -187500.02, -187500.02, -187500.02, -187500.02, 0.000, 0.000, 0.000, 02:40:12.038
197, 29778.07, 8325.22, -187500.02, -187500.02, -187500.02, -187500.02, -187500.02, -187500.02, 0.000, 0.000, 0.000, 02:40:12.039
198, 29753.05, 8317.73, -187500.02, -187500.02, -187500.02, -187500.02, -187500.02, -187500.02, 0.000, 0.000, 0.000, 02:40:12.039
199, 29757.73, 8333.80, -187500.02, -187500.02, -187500.02, -187500.02, -187500.02, -187500.02, 0.000, 0.000, 0.000, 02:40:12.039
200, 29806.14, 8358.52, -187500.02, -187500.02, -187500.02, -187500.02, -187500.02, -187500.02, 0.000, 0.000, 0.000, 02:40:12.039
201, 29807.50, 8351.57, -187500.02, -187500.02, -187500.02, -187500.02, -187500.02, -187500.02, 0.000, 0.000, 0.000, 02:40:12.039
202, 29781.42, 8344.44, -187500.02, -187500.02, -187500.02, -187500.02, -187500.02, -187500.02, 0.000, 0.000, 0.000, 02:40:12.039
203, 29780.57, 8314.76, -187500.02, -187500.02, -187500.02, -187500.02, -187500.02, -187500.02, 0.000, 0.000, 0.000, 02:40:12.039
204, 29810.21, 8337.74, -187500.02, -187500.02, -187500.02, -187500.02, -187500.02, -187500.02, 0.214, 0.990, -0.080, 02:40:12.039
205, 29810.59, 8362.53, -187500.02, -187500.02, -187500.02, -187500.02, -187500.02, -187500.02, 0.000, 0.000, 0.000, 02:40:12.039
206, 29778.71, 8341.76, -187500.02, -187500.02, -187500.02, -187500.02, -187500.02, -187500.02, 0.000, 0.000, 0.000, 02:40:12.039
207, 29756.41, 8306.53, -187500.02, -187500.02, -187500.02, -187500.02, -187500.02, -187500.02, 0.000, 0.000, 0.000, 02:40:12.040
208, 29779.63, 8322.67, -187500.02, -187500.02, -187500.02, -187500.02, -187500.02, -187500.02, 0.000, 0.000, 0.000, 02:40:12.040
209, 29787.65, 8323.36, -187500.02, -187500.02, -187500.02, -187500.02, -187500.02, -187500.02, 0.000, 0.000, 0.000, 02:40:12.040
210, 29768.19, 8344.49, -187500.02, -187500.02, -187500.02, -187500.02, -187500.02, -187500.02, 0.000, 0.000, 0.000, 02:40:12.503
211, 29755.71, 8315.21, -187500.02, -187500.02, -187500.02, -187500.02, -187500.02, -187500.02, 0.000, 0.000, 0.000, 02:40:12.503
212, 29785.80, 8338.61, -187500.02, -187500.02, -187500.02, -187500.02, -187500.02, -187500.02, 0.000, 0.000, 0.000, 02:40:12.504
213, 29797.80, 8348.11, -187500.02, -187500.02, -187500.02, -187500.02, -187500.02, -187500.02, 0.000, 0.000, 0.000, 02:40:12.504
214, 29767.63, 8318.20, -187500.02, -187500.02, -187500.02, -187500.02, -187500.02, -187500.02, 0.214, 0.996, -0.084, 02:40:12.504
215, 29749.12, 8296.39, -187500.02, -187500.02, -187500.02, -187500.02, -187500.02, -187500.02, 0.000, 0.000, 0.000, 02:40:12.504
216, 29781.93, 8318.22, -187500.02, -187500.02, -187500.02, -187500.02, -187500.02, -187500.02, 0.000, 0.000, 0.000, 02:40:12.504
217, 29794.49, 8331.30, -187500.02, -187500.02, -187500.02, -187500.02, -187500.02, -187500.02, 0.000, 0.000, 0.000, 02:40:12.504
218, 29786.89, 8317.40, -187500.02, -187500.02, -187500.02, -187500.02, -187500.02, -187500.02, 0.000, 0.000, 0.000, 02:40:12.504
219, 29764.32, 8321.40, -187500.02, -187500.02, -187500.02, -187500.02, -187500.02, -187500.02, 0.000, 0.000, 0.000, 02:40:12.504
220, 29763.85, 8312.66, -187500.02, -187500.02, -187500.02, -187500.02, -187500.02, -187500.02, 0.000, 0.000, 0.000, 02:40:12.505
221, 29802.21, 8333.71, -187500.02, -187500.02, -187500.02, -187500.02, -187500.02, -187500.02, 0.000, 0.000, 0.000, 02:40:12.505
222, 29798.03, 8344.40, -187500.02, -187500.02, -187500.02, -187500.02, -187500.02, -187500.02, 0.000, 0.000, 0.000, 02:40:12.505
223, 29762.24, 8310.36, -187500.02, -187500.02, -187500.02, -187500.02, -187500.02, -187500.02, 0.000, 0.000, 0.000, 02:40:12.505
224, 29762.53, 8303.83, -187500.02, -187500.02, -187500.02, -187500.02, -187500.02, -187500.02, 0.210, 0.994, -0.082, 02:40:12.505
225, 29789.15, 8305.15, -187500.02, -187500.02, -187500.02, -187500.02, -187500.02, -187500.02, 0.000, 0.000, 0.000, 02:40:12.506
226, 29788.91, 8324.24, -187500.02, -187500.02, -187500.02, -187500.02, -187500.02, -187500.02, 0.000, 0.000, 0.000, 02:40:12.506
227, 29775.16, 8335.93, -187500.02, -187500.02, -187500.02, -187500.02, -187500.02, -187500.02, 0.000, 0.000, 0.000, 02:40:12.506
228, 29768.66, 8321.64, -187500.02, -187500.02, -187500.02, -187500.02, -187500.02, -187500.02, 0.000, 0.000, 0.000, 02:40:12.506
229, 29797.40, 8340.29, -187500.02, -187500.02, -187500.02, -187500.02, -187500.02, -187500.02, 0.000, 0.000, 0.000, 02:40:12.506
230, 29801.80, 8326.56, -187500.02, -187500.02, -187500.02, -187500.02, -187500.02, -187500.02, 0.000, 0.000, 0.000, 02:40:12.506
231, 29781.31, 8326.87, -187500.02, -187500.02, -187500.02, -187500.02, -187500.02, -187500.02, 0.000, 0.000, 0.000, 02:40:12.506
232, 29769.64, 8315.05, -187500.02, -187500.02, -187500.02, -187500.02, -187500.02, -187500.02, 0.000, 0.000, 0.000, 02:40:12.506
233, 29793.11, 8333.18, -187500.02, -187500.02, -187500.02, -187500.02, -187500.02, -187500.02, 0.000, 0.000, 0.000, 02:40:12.506
234, 29791.43, 8323.75, -187500.02, -187500.02, -187500.02, -187500.02, -187500.02, -187500.02, 0.218, 0.994, -0.082, 02:40:12.506
235, 29776.03, 8307.23, -187500.02, -187500.02, -187500.02, -187500.02, -187500.02, -187500.02, 0.000, 0.000, 0.000, 02:40:12.506
236, 29748.40, 8305.06, -187500.02, -187500.02, -187500.02, -187500.02, -187500.02, -187500.02, 0.000, 0.000, 0.000, 02:40:12.507
237, 29781.57, 8323.16, -187500.02, -187500.02, -187500.02, -187500.02, -187500.02, -187500.02, 0.000, 0.000, 0.000, 02:40:12.507
238, 29799.30, 8352.96, -187500.02, -187500.02, -187500.02, -187500.02, -187500.02, -187500.02, 0.000, 0.000, 0.000, 02:40:12.507
239, 29798.03, 8348.53, -187500.02, -187500.02, -187500.02, -187500.02, -187500.02, -187500.02, 0.000, 0.000, 0.000, 02:40:12.507
240, 29761.21, 8323.30, -187500.02, -187500.02, -187500.02, -187500.02, -187500.02, -187500.02, 0.000, 0.000, 0.000, 02:40:12.507
241, 29783.94, 8327.59, -187500.02, -187500.02, -187500.02, -187500.02, -187500.02, -187500.02, 0.000, 0.000, 0.000, 02:40:12.507
242, 29812.22, 8344.69, -187500.02, -187500.02, -187500.02, -187500.02, -187500.02, -187500.02, 0.000, 0.000, 0.000, 02:40:12.507
243, 29786.22, 8358.86, -187500.02, -187500.02, -187500.02, -187500.02, -187500.02, -187500.02, 0.000, 0.000, 0.000, 02:40:12.507
244, 29772.01, 8358.57, -187500.02, -187500.02, -187500.02, -187500.02, -187500.02, -187500.02, 0.224, 0.996, -0.084, 02:40:12.508
245, 29796.21, 8350.88, -187500.02, -187500.02, -187500.02, -187500.02, -187500.02, -187500.02, 0.000, 0.000, 0.000, 02:40:12.508
246, 29820.04, 8375.85, -187500.02, -187500.02, -187500.02, -187500.02, -187500.02, -187500.02, 0.000, 0.000, 0.000, 02:40:12.508
247, 29812.60, 8390.64, -187500.02, -187500.02, -187500.02, -187500.02, -187500.02, -187500.02, 0.000, 0.000, 0.000, 02:40:12.508
248, 29786.43, 8375.06, -187500.02, -187500.02, -187500.02, -187500.02, -187500.02, -187500.02, 0.000, 0.000, 0.000, 02:40:12.508
249, 29781.22, 8358.23, -187500.02, -187500.02, -187500.02, -187500.02, -187500.02, -187500.02, 0.000, 0.000, 0.000, 02:40:12.508
250, 29809.47, 8371.42, -187500.02, -187500.02, -187500.02, -187500.02, -187500.02, -187500.02, 0.000, 0.000, 0.000, 02:40:12.508
251, 29821.34, 8380.88, -187500.02, -187500.02, -187500.02, -187500.02, -187500.02, -187500.02, 0.000, 0.000, 0.000, 02:40:12.508
252, 29785.55, 8377.12, -187500.02, -187500.02, -187500.02, -187500.02, -187500.02, -187500.02, 0.000, 0.000, 0.000, 02:40:12.509
253, 29781.73, 8341.36, -187500.02, -187500.02, -187500.02, -187500.02, -187500.02, -187500.02, 0.224, 0.990, -0.084, 02:40:12.509
254, 29811.01, 8382.84, -187500.02, -187500.02, -187500.02, -187500.02, -187500.02, -187500.02, 0.000, 0.000, 0.000, 02:40:12.509
255, 29810.54, 8393.46, -187500.02, -187500.02, -187500.02, -187500.02, -187500.02, -187500.02, 0.000, 0.000, 0.000, 02:40:12.509
0, 29791.21, 8390.49, -187500.02, -187500.02, -187500.02, -187500.02, -187500.02, -187500.02, 0.000, 0.000, 0.000, 02:40:12.509
1, 29784.88, 8388.18, -187500.02, -187500.02, -187500.02, -187500.02, -187500.02, -187500.02, 0.000, 0.000, 0.000, 02:40:12.509
2, 29810.03, 8390.87, -187500.02, -187500.02, -187500.02, -187500.02, -187500.02, -187500.02, 0.000, 0.000, 0.000, 02:40:12.509
3, 29819.13, 8397.86, -187500.02, -187500.02, -187500.02, -187500.02, -187500.02, -187500.02, 0.000, 0.000, 0.000, 02:40:12.509
4, 29810.90, 8410.63, -187500.02, -187500.02, -187500.02, -187500.02, -187500.02, -187500.02, 0.000, 0.000, 0.000, 02:40:12.509
5, 29767.70, 8367.26, -187500.02, -187500.02, -187500.02, -187500.02, -187500.02, -187500.02, 0.000, 0.000, 0.000, 02:40:12.510
6, 29799.01, 8356.38, -187500.02, -187500.02, -187500.02, -187500.02, -187500.02, -187500.02, 0.000, 0.000, 0.000, 02:40:12.510
7, 29826.77, 8404.17, -187500.02, -187500.02, -187500.02, -187500.02, -187500.02, -187500.02, 0.220, 0.996, -0.084, 02:40:12.510
8, 29807.44, 8402.89, -187500.02, -187500.02, -187500.02, -187500.02, -187500.02, -187500.02, 0.000, 0.000, 0.000, 02:40:12.510
9, 29787.05, 8382.46, -187500.02, -187500.02, -187500.02, -187500.02, -187500.02, -187500.02, 0.000, 0.000, 0.000, 02:40:12.510
10, 29798.90, 8386.11, -187500.02, -187500.02, -187500.02, -187500.02, -187500.02, -187500.02, 0.000, 0.000, 0.000, 02:40:12.510
11, 29809.94, 8401.42, -187500.02, -187500.02, -187500.02, -187500.02, -187500.02, -187500.02, 0.000, 0.000, 0.000, 02:40:12.510
12, 29808.53, 8394.87, -187500.02, -187500.02, -187500.02, -187500.02, -187500.02, -187500.02, 0.000, 0.000, 0.000, 02:40:12.510
13, 29776.86, 8366.24, -187500.02, -187500.02, -187500.02, -187500.02, -187500.02, -187500.02, 0.000, 0.000, 0.000, 02:40:12.510
14, 29784.62, 8339.79, -187500.02, -187500.02, -187500.02, -187500.02, -187500.02, -187500.02, 0.000, 0.000, 0.000, 02:40:12.510
15, 29809.31, 8407.05, -187500.02, -187500.02, -187500.02, -187500.02, -187500.02, -187500.02, 0.000, 0.000, 0.000, 02:40:12.511
16, 29802.74, 8420.30, -187500.02, -187500.02, -187500.02, -187500.02, -187500.02, -187500.02, 0.000, 0.000, 0.000, 02:40:12.511
17, 29778.51, 8393.06, -187500.02, -187500.02, -187500.02, -187500.02, -187500.02, -187500.02, 0.216, 0.998, -0.080, 02:40:12.511
18, 29784.99, 8384.43, -187500.02, -187500.02, -187500.02, -187500.02, -187500.02, -187500.02, 0.000, 0.000, 0.000, 02:40:12.511
19, 29825.09, 8411.65, -187500.02, -187500.02, -187500.02, -187500.02, -187500.02, -187500.02, 0.000, 0.000, 0.000, 02:40:12.511
20, 29813.09, 8415.81, -187500.02, -187500.02, -187500.02, -187500.02, -187500.02, -187500.02, 0.000, 0.000, 0.000, 02:40:12.511
21, 29791.99, 8393.95, -187500.02, -187500.02, -187500.02, -187500.02, -187500.02, -187500.02, 0.000, 0.000, 0.000, 02:40:12.511
22, 29776.79, 8344.93, -187500.02, -187500.02, -187500.02, -187500.02, -187500.02, -187500.02, 0.000, 0.000, 0.000, 02:40:12.512
23, 29798.38, 8378.06, -187500.02, -187500.02, -187500.02, -187500.02, -187500.02, -187500.02, 0.000, 0.000, 0.000, 02:40:12.512
24, 29811.84, 8434.52, -187500.02, -187500.02, -187500.02, -187500.02, -187500.02, -187500.02, 0.000, 0.000, 0.000, 02:40:12.512
25, 29800.04, 8429.98, -187500.02, -187500.02, -187500.02, -187500.02, -187500.02, -187500.02, 0.000, 0.000, 0.000, 02:40:12.512
26, 29768.48, 8390.11, -187500.02, -187500.02, -187500.02, -187500.02, -187500.02, -187500.02, 0.000, 0.000, 0.000, 02:40:12.512
27, 29793.18, 8392.01, -187500.02, -187500.02, -187500.02, -187500.02, -187500.02, -187500.02, 0.214, 0.996, -0.082, 02:40:12.512
28, 29806.01, 8421.67, -187500.02, -187500.02, -187500.02, -187500.02, -187500.02, -187500.02, 0.000, 0.000, 0.000, 02:40:12.512
29, 29785.75, 8413.44, -187500.02, -187500.02, -187500.02, -187500.02, -187500.02, -187500.02, 0.000, 0.000, 0.000, 02:40:12.512
30, 29776.72, 8387.56, -187500.02, -187500.02, -187500.02, -187500.02, -187500.02, -187500.02, 0.000, 0.000, 0.000, 02:40:12.513
31, 29817.07, 8382.06, -187500.02, -187500.02, -187500.02, -187500.02, -187500.02, -187500.02, 0.000, 0.000, 0.000, 02:40:12.513
32, 29827.80, 8407.34, -187500.02, -187500.02, -187500.02, -187500.02, -187500.02, -187500.02, 0.000, 0.000, 0.000, 02:40:12.513
33, 29819.86, 8421.06, -187500.02, -187500.02, -187500.02, -187500.02, -187500.02, -187500.02, 0.000, 0.000, 0.000, 02:40:12.513
34, 29788.77, 8402.15, -187500.02, -187500.02, -187500.02, -187500.02, -187500.02, -187500.02, 0.000, 0.000, 0.000, 02:40:12.513
35, 29799.01, 8398.56, -187500.02, -187500.02, -187500.02, -187500.02, -187500.02, -187500.02, 0.000, 0.000, 0.000, 02:40:12.513
36, 29814.79, 8404.05, -187500.02, -187500.02, -187500.02, -187500.02, -187500.02, -187500.02, 0.000, 0.000, 0.000, 02:40:12.513
37, 29808.80, 8410.71, -187500.02, -187500.02, -187500.02, -187500.02, -187500.02, -187500.02, 0.214, 0.996, -0.086, 02:40:12.513
38, 29772.54, 8401.04, -187500.02, -187500.02, -187500.02, -187500.02, -187500.02, -187500.02, 0.000, 0.000, 0.000, 02:40:12.514
39, 29777.95, 8368.63, -187500.02, -187500.02, -187500.02, -187500.02, -187500.02, -187500.02, 0.000, 0.000, 0.000, 02:40:12.514
40, 29811.55, 8388.68, -187500.02, -187500.02, -187500.02, -187500.02, -187500.02, -187500.02, 0.000, 0.000, 0.000, 02:40:12.514
41, 29803.79, 8404.46, -187500.02, -187500.02, -187500.02, -187500.02, -187500.02, -187500.02, 0.000, 0.000, 0.000, 02:40:12.514
42, 29778.33, 8407.74, -187500.02, -187500.02, -187500.02, -187500.02, -187500.02, -187500.02, 0.000, 0.000, 0.000, 02:40:12.514
43, 29770.42, 8383.60, -187500.02, -187500.02, -187500.02, -187500.02, -187500.02, -187500.02, 0.000, 0.000, 0.000, 02:40:12.514
44, 29807.30, 8402.22, -187500.02, -187500.02, -187500.02, -187500.02, -187500.02, -187500.02, 0.000, 0.000, 0.000, 02:40:12.514
45, 29810.56, 8408.39, -187500.02, -187500.02, -187500.02, -187500.02, -187500.02, -187500.02, 0.000, 0.000, 0.000, 02:40:12.514
46, 29785.11, 8381.59, -187500.02, -187500.02, -187500.02, -187500.02, -187500.02, -187500.02, 0.000, 0.000, 0.000, 02:40:12.515
47, 29763.45, 8360.25, -187500.02, -187500.02, -187500.02, -187500.02, -187500.02, -187500.02, 0.216, 0.992, -0.082, 02:40:12.515
48, 29800.73, 8391.07, -187500.02, -187500.02, -187500.02, -187500.02, -187500.02, -187500.02, 0.000, 0.000, 0.000, 02:40:12.515
49, 29819.95, 8422.72, -187500.02, -187500.02, -187500.02, -187500.02, -187500.02, -187500.02, 0.000, 0.000, 0.000, 02:40:12.515
50, 29792.42, 8404.21, -187500.02, -187500.02, -187500.02, -187500.02, -187500.02, -187500.02, 0.000, 0.000, 0.000, 02:40:12.515
51, 29758.46, 8380.90, -187500.02, -187500.02, -187500.02, -187500.02, -187500.02, -187500.02, 0.000, 0.000, 0.000, 02:40:12.515
52, 29787.90, 8373.03, -187500.02, -187500.02, -187500.02, -187500.02, -187500.02, -187500.02, 0.000, 0.000, 0.000, 02:40:12.516
53, 29807.08, 8404.46, -187500.02, -187500.02, -187500.02, -187500.02, -187500.02, -187500.02, 0.000, 0.000, 0.000, 02:40:12.516
54, 29781.53, 8397.35, -187500.02, -187500.02, -187500.02, -187500.02, -187500.02, -187500.02, 0.000, 0.000, 0.000, 02:40:12.516
55, 29762.80, 8370.24, -187500.02, -187500.02, -187500.02, -187500.02, -187500.02, -187500.02, 0.000, 0.000, 0.000, 02:40:12.516
56, 29801.78, 8370.08, -187500.02, -187500.02, -187500.02, -187500.02, -187500.02, -187500.02, 0.218, 0.990, -0.084, 02:40:12.516
57, 29808.20, 8378.73, -187500.02, -187500.02, -187500.02, -187500.02, -187500.02, -187500.02, 0.000, 0.000, 0.000, 02:40:12.516
58, 29787.70, 8387.58, -187500.02, -187500.02, -187500.02, -187500.02, -187500.02, -187500.02, 0.000, 0.000, 0.000, 02:40:12.516
59, 29755.92, 8384.21, -187500.02, -187500.02, -187500.02, -187500.02, -187500.02, -187500.02, 0.000, 0.000, 0.000, 02:40:12.516
60, 29768.46, 8394.06, -187500.02, -187500.02, -187500.02, -187500.02, -187500.02, -187500.02, 0.000, 0.000, 0.000, 02:40:12.517
61, 29779.03, 8401.22, -187500.02, -187500.02, -187500.02, -187500.02, -187500.02, -187500.02, 0.000, 0.000, 0.000, 02:40:12.517
62, 29785.87, 8401.19, -187500.02, -187500.02, -187500.02, -187500.02, -187500.02, -187500.02, 0.000, 0.000, 0.000, 02:40:12.517
63, 29768.57, 8374.53, -187500.02, -187500.02, -187500.02, -187500.02, -187500.02, -187500.02, 0.000, 0.000, 0.000, 02:40:12.517
64, 29759.42, 8348.62, -187500.02, -187500.02, -187500.02, -187500.02, -187500.02, -187500.02, 0.000, 0.000, 0.000, 02:40:12.517
65, 29791.57, 8401.39, -187500.02, -187500.02, -187500.02, -187500.02, -187500.02, -187500.02, 0.000, 0.000, 0.000, 02:40:12.517
66, 29788.48, 8420.75, -187500.02, -187500.02, -187500.02, -187500.02, -187500.02, -187500.02, 0.220, 0.992, -0.086, 02:40:12.517
67, 29768.68, 8387.29, -187500.02, -187500.02, -187500.02, -187500.02, -187500.02, -187500.02, 0.000, 0.000, 0.000, 02:40:12.518
68, 29762.42, 8366.08, -187500.02, -187500.02, -187500.02, -187500.02, -187500.02, -187500.02, 0.000, 0.000, 0.000, 02:40:12.518
69, 29799.68, 8385.23, -187500.02, -187500.02, -187500.02, -187500.02, -187500.02, -187500.02, 0.000, 0.000, 0.000, 02:40:12.518
70, 29793.33, 8386.98, -187500.02, -187500.02, -187500.02, -187500.02, -187500.02, -187500.02, 0.000, 0.000, 0.000, 02:40:12.518
71, 29771.14, 8381.14, -187500.02, -187500.02, -187500.02, -187500.02, -187500.02, -187500.02, 0.000, 0.000, 0.000, 02:40:12.518
72, 29750.24, 8351.24, -187500.02, -187500.02, -187500.02, -187500.02, -187500.02, -187500.02, 0.000, 0.000, 0.000, 02:40:12.519
73, 29783.86, 8370.12, -187500.02, -187500.02, -187500.02, -187500.02, -187500.02, -187500.02, 0.000, 0.000, 0.000, 02:40:12.519
74, 29787.32, 8395.58, -187500.02, -187500.02, -187500.02, -187500.02, -187500.02, -187500.02, 0.000, 0.000, 0.000, 02:40:12.984
75, 29777.42, 8394.73, -187500.02, -187500.02, -187500.02, -187500.02, -187500.02, -187500.02, 0.000, 0.000, 0.000, 02:40:12.984
76, 29756.83, 8373.19, -187500.02, -187500.02, -187500.02, -187500.02, -187500.02, -187500.02, 0.220, 0.992, -0.082, 02:40:12.984
77, 29780.44, 8381.88, -187500.02, -187500.02, -187500.02, -187500.02, -187500.02, -187500.02, 0.000, 0.000, 0.000, 02:40:12.984
78, 29783.99, 8398.35, -187500.02, -187500.02, -187500.02, -187500.02, -187500.02, -187500.02, 0.000, 0.000, 0.000, 02:40:12.985
79, 29773.89, 8370.82, -187500.02, -187500.02, -187500.02, -187500.02, -187500.02, -187500.02, 0.000, 0.000, 0.000, 02:40:12.985
80, 29745.25, 8345.43, -187500.02, -187500.02, -187500.02, -187500.02, -187500.02, -187500.02, 0.000, 0.000, 0.000, 02:40:12.985
81, 29756.00, 8363.44, -187500.02, -187500.02, -187500.02, -187500.02, -187500.02, -187500.02, 0.000, 0.000, 0.000, 02:40:12.985
82, 29775.45, 8376.96, -187500.02, -187500.02, -187500.02, -187500.02, -187500.02, -187500.02, 0.000, 0.000, 0.000, 02:40:12.985
83, 29778.40, 8384.50, -187500.02, -187500.02, -187500.02, -187500.02, -187500.02, -187500.02, 0.000, 0.000, 0.000, 02:40:12.985
84, 29750.08, 8361.32, -187500.02, -187500.02, -187500.02, -187500.02, -187500.02, -187500.02, 0.000, 0.000, 0.000, 02:40:12.985
85, 29762.71, 8349.25, -187500.02, -187500.02, -187500.02, -187500.02, -187500.02, -187500.02, 0.000, 0.000, 0.000, 02:40:12.985
86, 29780.61, 8390.31, -187500.02, -187500.02, -187500.02, -187500.02, -187500.02, -187500.02, 0.218, 0.996, -0.082, 02:40:12.986
87, 29767.67, 8377.90, -187500.02, -187500.02, -187500.02, -187500.02, -187500.02, -187500.02, 0.000, 0.000, 0.000, 02:40:12.986
88, 29746.68, 8321.20, -187500.02, -187500.02, -187500.02, -187500.02, -187500.02, -187500.02, 0.000, 0.000, 0.000, 02:40:12.986
89, 29746.77, 8332.95, -187500.02, -187500.02, -187500.02, -187500.02, -187500.02, -187500.02, 0.000, 0.000, 0.000, 02:40:12.986
90, 29782.04, 8379.60, -187500.02, -187500.02, -187500.02, -187500.02, -187500.02, -187500.02, 0.000, 0.000, 0.000, 02:40:12.986
91, 29770.09, 8375.67, -187500.02, -187500.02, -187500.02, -187500.02, -187500.02, -187500.02, 0.000, 0.000, 0.000, 02:40:12.986
92, 29740.63, 8363.89, -187500.02, -187500.02, -187500.02, -187500.02, -187500.02, -187500.02, 0.000, 0.000, 0.000, 02:40:12.986
93, 29734.14, 8352.53, -187500.02, -187500.02, -187500.02, -187500.02, -187500.02, -187500.02, 0.000, 0.000, 0.000, 02:40:12.986
94, 29778.31, 8368.34, -187500.02, -187500.02, -187500.02, -187500.02, -187500.02, -187500.02, 0.000, 0.000, 0.000, 02:40:12.987
95, 29789.78, 8394.04, -187500.02, -187500.02, -187500.02, -187500.02, -187500.02, -187500.02, 0.000, 0.000, 0.000, 02:40:12.987
96, 29771.67, 8382.40, -187500.02, -187500.02, -187500.02, -187500.02, -187500.02, -187500.02, 0.218, 0.992, -0.086, 02:40:12.987
97, 29744.47, 8357.96, -187500.02, -187500.02, -187500.02, -187500.02, -187500.02, -187500.02, 0.000, 0.000, 0.000, 02:40:12.987
98, 29767.92, 8377.41, -187500.02, -187500.02, -187500.02, -187500.02, -187500.02, -187500.02, 0.000, 0.000, 0.000, 02:40:12.987
99, 29765.62, 8379.02, -187500.02, -187500.02, -187500.02, -187500.02, -187500.02, -187500.02, 0.000, 0.000, 0.000, 02:40:12.987
100, 29761.44, 8353.72, -187500.02, -187500.02, -187500.02, -187500.02, -187500.02, -187500.02, 0.000, 0.000, 0.000, 02:40:12.987
101, 29741.16, 8334.32, -187500.02, -187500.02, -187500.02, -187500.02, -187500.02, -187500.02, 0.000, 0.000, 0.000, 02:40:12.987
102, 29779.92, 8350.63, -187500.02, -187500.02, -187500.02, -187500.02, -187500.02, -187500.02, 0.000, 0.000, 0.000, 02:40:12.988
103, 29783.50, 8385.39, -187500.02, -187500.02, -187500.02, -187500.02, -187500.02, -187500.02, 0.000, 0.000, 0.000, 02:40:12.988
104, 29776.08, 8374.28, -187500.02, -187500.02, -187500.02, -187500.02, -187500.02, -187500.02, 0.000, 0.000, 0.000, 02:40:12.988
105, 29754.48, 8357.41, -187500.02, -187500.02, -187500.02, -187500.02, -187500.02, -187500.02, 0.000, 0.000, 0.000, 02:40:12.988
106, 29757.41, 8360.13, -187500.02, -187500.02, -187500.02, -187500.02, -187500.02, -187500.02, 0.216, 0.992, -0.082, 02:40:12.997
107, 29776.93, 8384.88, -187500.02, -187500.02, -187500.02, -187500.02, -187500.02, -187500.02, 0.000, 0.000, 0.000, 02:40:12.997
108, 29756.27, 8352.69, -187500.02, -187500.02, -187500.02, -187500.02, -187500.02, -187500.02, 0.000, 0.000, 0.000, 02:40:12.998
109, 29737.97, 8324.93, -187500.02, -187500.02, -187500.02, -187500.02, -187500.02, -187500.02, 0.000, 0.000, 0.000, 02:40:12.998
110, 29761.57, 8344.75, -187500.02, -187500.02, -187500.02, -187500.02, -187500.02, -187500.02, 0.000, 0.000, 0.000, 02:40:12.998
111, 29798.65, 8389.53, -187500.02, -187500.02, -187500.02, -187500.02, -187500.02, -187500.02, 0.000, 0.000, 0.000, 02:40:12.998
112, 29794.05, 8401.31, -187500.02, -187500.02, -187500.02, -187500.02, -187500.02, -187500.02, 0.000, 0.000, 0.000, 02:40:12.998
113, 29760.07, 8382.11, -187500.02, -187500.02, -187500.02, -187500.02, -187500.02, -187500.02, 0.000, 0.000, 0.000, 02:40:12.998
114, 29750.86, 8347.55, -187500.02, -187500.02, -187500.02, -187500.02, -187500.02, -187500.02, 0.000, 0.000, 0.000, 02:40:12.998
115, 29777.17, 8378.04, -187500.02, -187500.02, -187500.02, -187500.02, -187500.02, -187500.02, 0.220, 0.988, -0.086, 02:40:12.998
116, 29781.87, 8368.36, -187500.02, -187500.02, -187500.02, -187500.02, -187500.02, -187500.02, 0.000, 0.000, 0.000, 02:40:12.999
117, 29755.07, 8347.08, -187500.02, -187500.02, -187500.02, -187500.02, -187500.02, -187500.02, 0.000, 0.000, 0.000, 02:40:12.999
118, 29748.32, 8341.94, -187500.02, -187500.02, -187500.02, -187500.02, -187500.02, -187500.02, 0.000, 0.000, 0.000, 02:40:12.999
119, 29773.37, 8370.53, -187500.02, -187500.02, -187500.02, -187500.02, -187500.02, -187500.02, 0.000, 0.000, 0.000, 02:40:12.999
120, 29782.94, 8372.99, -187500.02, -187500.02, -187500.02, -187500.02, -187500.02, -187500.02, 0.000, 0.000, 0.000, 02:40:12.999
121, 29763.94, 8366.39, -187500.02, -187500.02, -187500.02, -187500.02, -187500.02, -187500.02, 0.000, 0.000, 0.000, 02:40:12.999
122, 29748.07, 8325.38, -187500.02, -187500.02, -187500.02, -187500.02, -187500.02, -187500.02, 0.000, 0.000, 0.000, 02:40:12.999
123, 29763.29, 8386.06, -187500.02, -187500.02, -187500.02, -187500.02, -187500.02, -187500.02, 0.000, 0.000, 0.000, 02:40:13.000
124, 29769.93, 8377.68, -187500.02, -187500.02, -187500.02, -187500.02, -187500.02, -187500.02, 0.000, 0.000, 0.000, 02:40:13.000
125, 29764.14, 8358.41, -187500.02, -187500.02, -187500.02, -187500.02, -187500.02, -187500.02, 0.216, 0.994, -0.088, 02:40:13.000
126, 29754.22, 8341.29, -187500.02, -187500.02, -187500.02, -187500.02, -187500.02, -187500.02, 0.000, 0.000, 0.000, 02:40:13.000
127, 29774.94, 8370.95, -187500.02, -187500.02, -187500.02, -187500.02, -187500.02, -187500.02, 0.000, 0.000, 0.000, 02:40:13.000
128, 29796.48, 8388.05, -187500.02, -187500.02, -187500.02, -187500.02, -187500.02, -187500.02, 0.000, 0.000, 0.000, 02:40:13.000
129, 29785.46, 8366.62, -187500.02, -187500.02, -187500.02, -187500.02, -187500.02, -187500.02, 0.000, 0.000, 0.000, 02:40:13.000
130, 29745.72, 8338.90, -187500.02, -187500.02, -187500.02, -187500.02, -187500.02, -187500.02, 0.000, 0.000, 0.000, 02:40:13.001
131, 29766.73, 8338.34, -187500.02, -187500.02, -187500.02, -187500.02, -187500.02, -187500.02, 0.000, 0.000, 0.000, 02:40:13.001
132, 29779.56, 8357.03, -187500.02, -187500.02, -187500.02, -187500.02, -187500.02, -187500.02, 0.000, 0.000, 0.000, 02:40:13.001
133, 29774.18, 8363.78, -187500.02, -187500.02, -187500.02, -187500.02, -187500.02, -187500.02, 0.000, 0.000, 0.000, 02:40:13.001
134, 29766.40, 8365.03, -187500.02, -187500.02, -187500.02, -187500.02, -187500.02, -187500.02, 0.000, 0.000, 0.000, 02:40:13.001
135, 29761.10, 8345.45, -187500.02, -187500.02, -187500.02, -187500.02, -187500.02, -187500.02, 0.212, 0.996, -0.084, 02:40:13.001
136, 29773.37, 8333.24, -187500.02, -187500.02, -187500.02, -187500.02, -187500.02, -187500.02, 0.000, 0.000, 0.000, 02:40:13.001
137, 29764.05, 8329.11, -187500.02, -187500.02, -187500.02, -187500.02, -187500.02, -187500.02, 0.000, 0.000, 0.000, 02:40:13.001
138, 29760.41, 8370.68, -187500.02, -187500.02, -187500.02, -187500.02, -187500.02, -187500.02, 0.000, 0.000, 0.000, 02:40:13.002
139, 29761.41, 8369.32, -187500.02, -187500.02, -187500.02, -187500.02, -187500.02, -187500.02, 0.000, 0.000, 0.000, 02:40:13.002
140, 29796.37, 8372.05, -187500.02, -187500.02, -187500.02, -187500.02, -187500.02, -187500.02, 0.000, 0.000, 0.000, 02:40:13.002
141, 29804.24, 8375.33, -187500.02, -187500.02, -187500.02, -187500.02, -187500.02, -187500.02, 0.000, 0.000, 0.000, 02:40:13.002
142, 29779.79, 8367.67, -187500.02, -187500.02, -187500.02, -187500.02, -187500.02, -187500.02, 0.000, 0.000, 0.000, 02:40:13.002
143, 29764.41, 8345.47, -187500.02, -187500.02, -187500.02, -187500.02, -187500.02, -187500.02, 0.000, 0.000, 0.000, 02:40:13.002
144, 29779.05, 8356.09, -187500.02, -187500.02, -187500.02, -187500.02, -187500.02, -187500.02, 0.000, 0.000, 0.000, 02:40:13.002
145, 29792.44, 8346.05, -187500.02, -187500.02, -187500.02, -187500.02, -187500.02, -187500.02, 0.218, 0.996, -0.086, 02:40:13.002
146, 29772.39, 8354.54, -187500.02, -187500.02, -187500.02, -187500.02, -187500.02, -187500.02, 0.000, 0.000, 0.000, 02:40:13.003
147, 29751.87, 8335.48, -187500.02, -187500.02, -187500.02, -187500.02, -187500.02, -187500.02, 0.000, 0.000, 0.000, 02:40:13.003
148, 29784.82, 8338.56, -187500.02, -187500.02, -187500.02, -187500.02, -187500.02, -187500.02, 0.000, 0.000, 0.000, 02:40:13.003
149, 29792.26, 8354.41, -187500.02, -187500.02, -187500.02, -187500.02, -187500.02, -187500.02, 0.000, 0.000, 0.000, 02:40:13.003
150, 29767.16, 8349.14, -187500.02, -187500.02, -187500.02, -187500.02, -187500.02, -187500.02, 0.000, 0.000, 0.000, 02:40:13.003
151, 29743.53, 8324.21, -187500.02, -187500.02, -187500.02, -187500.02, -187500.02, -187500.02, 0.000, 0.000, 0.000, 02:40:13.003
152, 29772.75, 8350.08, -187500.02, -187500.02, -187500.02, -187500.02, -187500.02, -187500.02, 0.000, 0.000, 0.000, 02:40:13.003
153, 29800.11, 8380.52, -187500.02, -187500.02, -187500.02, -187500.02, -187500.02, -187500.02, 0.000, 0.000, 0.000, 02:40:13.003
154, 29799.43, 8357.25, -187500.02, -187500.02, -187500.02, -187500.02, -187500.02, -187500.02, 0.000, 0.000, 0.000, 02:40:13.003
155, 29752.58, 8360.42, -187500.02, -187500.02, -187500.02, -187500.02, -187500.02, -187500.02, 0.216, 0.996, -0.086, 02:40:13.004
