%OpenBCI Raw EEG Data
%
%Sample Rate = 250.0 Hz
%First Column = SampleIndex
%Last Column = Timestamp 
%Other Columns = EEG data in microvolts followed by Accel Data (in G) interleaved with Aux Data
0, 0.00, 0.00, 0.00, 0.00, 0.00, 0.00, 0.00, 0.00, 0.198, 0.506, -0.880, 03:05:23.982
1, 34612.79, 9217.39, 187500.00, 187500.00, 187500.00, 187500.00, 187500.00, 187500.00, 0.000, 0.000, 0.000, 03:05:24.467
2, 34601.53, 9207.76, 187500.00, 187500.00, 187500.00, 187500.00, 187500.00, 187500.00, 0.000, 0.000, 0.000, 03:05:24.467
3, 34620.91, 9200.83, 187500.00, 187500.00, 187500.00, 187500.00, 187500.00, 187500.00, 0.000, 0.000, 0.000, 03:05:24.467
4, 34629.24, 9224.90, 187500.00, 187500.00, 187500.00, 187500.00, 187500.00, 187500.00, 0.000, 0.000, 0.000, 03:05:24.467
5, 34618.74, 9212.23, 187500.00, 187500.00, 187500.00, 187500.00, 187500.00, 187500.00, 0.000, 0.000, 0.000, 03:05:24.467
6, 34598.96, 9200.38, 187500.00, 187500.00, 187500.00, 187500.00, 187500.00, 187500.00, 0.000, 0.000, 0.000, 03:05:24.467
7, 34619.23, 9214.26, 187500.00, 187500.00, 187500.00, 187500.00, 187500.00, 187500.00, 0.192, 0.524, -0.872, 03:05:24.467
8, 34622.94, 9229.08, 187500.00, 187500.00, 187500.00, 187500.00, 187500.00, 187500.00, 0.000, 0.000, 0.000, 03:05:24.468
9, 34608.03, 9209.28, 187500.00, 187500.00, 187500.00, 187500.00, 187500.00, 187500.00, 0.000, 0.000, 0.000, 03:05:24.468
10, 34590.35, 9189.41, 187500.00, 187500.00, 187500.00, 187500.00, 187500.00, 187500.00, 0.000, 0.000, 0.000, 03:05:24.468
11, 34601.39, 9200.94, 187500.00, 187500.00, 187500.00, 187500.00, 187500.00, 187500.00, 0.000, 0.000, 0.000, 03:05:24.468
12, 34621.67, 9218.26, 187500.00, 187500.00, 187500.00, 187500.00, 187500.00, 187500.00, 0.000, 0.000, 0.000, 03:05:24.468
13, 34614.09, 9215.13, 187500.00, 187500.00, 187500.00, 187500.00, 187500.00, 187500.00, 0.000, 0.000, 0.000, 03:05:24.468
14, 34589.66, 9187.33, 187500.00, 187500.00, 187500.00, 187500.00, 187500.00, 187500.00, 0.000, 0.000, 0.000, 03:05:24.468
15, 34594.82, 9188.76, 187500.00, 187500.00, 187500.00, 187500.00, 187500.00, 187500.00, 0.000, 0.000, 0.000, 03:05:24.468
16, 34622.92, 9225.03, 187500.00, 187500.00, 187500.00, 187500.00, 187500.00, 187500.00, 0.000, 0.000, 0.000, 03:05:24.468
17, 34619.36, 9221.21, 187500.00, 187500.00, 187500.00, 187500.00, 187500.00, 187500.00, 0.188, 0.524, -0.868, 03:05:24.469
18, 34594.46, 9199.71, 187500.00, 187500.00, 187500.00, 187500.00, 187500.00, 187500.00, 0.000, 0.000, 0.000, 03:05:24.469
19, 34589.79, 9206.64, 187500.00, 187500.00, 187500.00, 187500.00, 187500.00, 187500.00, 0.000, 0.000, 0.000, 03:05:24.469
20, 34621.78, 9227.22, 187500.00, 187500.00, 187500.00, 187500.00, 187500.00, 187500.00, 0.000, 0.000, 0.000, 03:05:24.469
21, 34611.56, 9210.17, 187500.00, 187500.00, 187500.00, 187500.00, 187500.00, 187500.00, 0.000, 0.000, 0.000, 03:05:24.469
22, 34587.11, 9196.18, 187500.00, 187500.00, 187500.00, 187500.00, 187500.00, 187500.00, 0.000, 0.000, 0.000, 03:05:24.469
23, 34579.06, 9166.76, 187500.00, 187500.00, 187500.00, 187500.00, 187500.00, 187500.00, 0.000, 0.000, 0.000, 03:05:24.469
24, 34615.79, 9192.53, 187500.00, 187500.00, 187500.00, 187500.00, 187500.00, 187500.00, 0.000, 0.000, 0.000, 03:05:24.469
25, 34618.36, 9234.47, 187500.00, 187500.00, 187500.00, 187500.00, 187500.00, 187500.00, 0.000, 0.000, 0.000, 03:05:24.469
26, 34610.20, 9211.40, 187500.00, 187500.00, 187500.00, 187500.00, 187500.00, 187500.00, 0.000, 0.000, 0.000, 03:05:24.470
27, 34591.54, 9183.46, 187500.00, 187500.00, 187500.00, 187500.00, 187500.00, 187500.00, 0.196, 0.528, -0.868, 03:05:24.470
28, 34604.57, 9200.74, 187500.00, 187500.00, 187500.00, 187500.00, 187500.00, 187500.00, 0.000, 0.000, 0.000, 03:05:24.470
29, 34619.23, 9211.76, 187500.00, 187500.00, 187500.00, 187500.00, 187500.00, 187500.00, 0.000, 0.000, 0.000, 03:05:24.470
30, 34598.20, 9213.28, 187500.00, 187500.00, 187500.00, 187500.00, 187500.00, 187500.00, 0.000, 0.000, 0.000, 03:05:24.470
31, 34588.56, 9199.73, 187500.00, 187500.00, 187500.00, 187500.00, 187500.00, 187500.00, 0.000, 0.000, 0.000, 03:05:24.470
32, 34615.88, 9209.43, 187500.00, 187500.00, 187500.00, 187500.00, 187500.00, 187500.00, 0.000, 0.000, 0.000, 03:05:24.470
33, 34628.84, 9213.86, 187500.00, 187500.00, 187500.00, 187500.00, 187500.00, 187500.00, 0.000, 0.000, 0.000, 03:05:24.470
34, 34616.84, 9223.65, 187500.00, 187500.00, 187500.00, 187500.00, 187500.00, 187500.00, 0.000, 0.000, 0.000, 03:05:24.470
35, 34584.00, 9196.36, 187500.00, 187500.00, 187500.00, 187500.00, 187500.00, 187500.00, 0.000, 0.000, 0.000, 03:05:24.470
36, 34587.85, 9202.91, 187500.00, 187500.00, 187500.00, 187500.00, 187500.00, 187500.00, 0.000, 0.000, 0.000, 03:05:24.471
37, 34615.72, 9216.83, 187500.00, 187500.00, 187500.00, 187500.00, 187500.00, 187500.00, 0.198, 0.526, -0.868, 03:05:24.471
38, 34621.58, 9208.52, 187500.00, 187500.00, 187500.00, 187500.00, 187500.00, 187500.00, 0.000, 0.000, 0.000, 03:05:24.471
39, 34599.02, 9194.30, 187500.00, 187500.00, 187500.00, 187500.00, 187500.00, 187500.00, 0.000, 0.000, 0.000, 03:05:24.471
40, 34605.91, 9179.12, 187500.00, 187500.00, 187500.00, 187500.00, 187500.00, 187500.00, 0.000, 0.000, 0.000, 03:05:24.471
41, 34620.93, 9200.92, 187500.00, 187500.00, 187500.00, 187500.00, 187500.00, 187500.00, 0.000, 0.000, 0.000, 03:05:24.471
42, 34608.08, 9223.98, 187500.00, 187500.00, 187500.00, 187500.00, 187500.00, 187500.00, 0.000, 0.000, 0.000, 03:05:24.471
43, 34591.65, 9193.88, 187500.00, 187500.00, 187500.00, 187500.00, 187500.00, 187500.00, 0.000, 0.000, 0.000, 03:05:24.471
44, 34596.50, 9204.74, 187500.00, 187500.00, 187500.00, 187500.00, 187500.00, 187500.00, 0.000, 0.000, 0.000, 03:05:24.471
45, 34622.38, 9228.05, 187500.00, 187500.00, 187500.00, 187500.00, 187500.00, 187500.00, 0.000, 0.000, 0.000, 03:05:24.472
46, 34605.59, 9205.16, 187500.00, 187500.00, 187500.00, 187500.00, 187500.00, 187500.00, 0.000, 0.000, 0.000, 03:05:24.472
47, 34594.17, 9204.72, 187500.00, 187500.00, 187500.00, 187500.00, 187500.00, 187500.00, 0.190, 0.532, -0.874, 03:05:24.472
48, 34588.56, 9188.24, 187500.00, 187500.00, 187500.00, 187500.00, 187500.00, 187500.00, 0.000, 0.000, 0.000, 03:05:24.472
49, 34606.98, 9211.40, 187500.00, 187500.00, 187500.00, 187500.00, 187500.00, 187500.00, 0.000, 0.000, 0.000, 03:05:24.472
50, 34605.59, 9211.58, 187500.00, 187500.00, 187500.00, 187500.00, 187500.00, 187500.00, 0.000, 0.000, 0.000, 03:05:24.472
51, 34604.25, 9193.32, 187500.00, 187500.00, 187500.00, 187500.00, 187500.00, 187500.00, 0.000, 0.000, 0.000, 03:05:24.472
52, 34584.94, 9179.95, 187500.00, 187500.00, 187500.00, 187500.00, 187500.00, 187500.00, 0.000, 0.000, 0.000, 03:05:24.472
53, 34608.05, 9189.41, 187500.00, 187500.00, 187500.00, 187500.00, 187500.00, 187500.00, 0.000, 0.000, 0.000, 03:05:24.472
54, 34611.03, 9204.49, 187500.00, 187500.00, 187500.00, 187500.00, 187500.00, 187500.00, 0.000, 0.000, 0.000, 03:05:24.472
55, 34592.86, 9191.69, 187500.00, 187500.00, 187500.00, 187500.00, 187500.00, 187500.00, 0.000, 0.000, 0.000, 03:05:24.473
56, 34581.28, 9209.05, 187500.00, 187500.00, 187500.00, 187500.00, 187500.00, 187500.00, 0.000, 0.000, 0.000, 03:05:24.473
57, 34606.85, 9215.00, 187500.00, 187500.00, 187500.00, 187500.00, 187500.00, 187500.00, 0.192, 0.530, -0.866, 03:05:24.473
58, 34628.75, 9222.22, 187500.00, 187500.00, 187500.00, 187500.00, 187500.00, 187500.00, 0.000, 0.000, 0.000, 03:05:24.473
59, 34608.86, 9215.31, 187500.00, 187500.00, 187500.00, 187500.00, 187500.00, 187500.00, 0.000, 0.000, 0.000, 03:05:24.473
60, 34585.66, 9194.23, 187500.00, 187500.00, 187500.00, 187500.00, 187500.00, 187500.00, 0.000, 0.000, 0.000, 03:05:24.473
61, 34606.22, 9200.11, 187500.00, 187500.00, 187500.00, 187500.00, 187500.00, 187500.00, 0.000, 0.000, 0.000, 03:05:24.473
62, 34626.05, 9213.88, 187500.00, 187500.00, 187500.00, 187500.00, 187500.00, 187500.00, 0.000, 0.000, 0.000, 03:05:24.473
63, 34622.47, 9215.80, 187500.00, 187500.00, 187500.00, 187500.00, 187500.00, 187500.00, 0.000, 0.000, 0.000, 03:05:24.473
64, 34590.51, 9194.97, 187500.00, 187500.00, 187500.00, 187500.00, 187500.00, 187500.00, 0.000, 0.000, 0.000, 03:05:24.473
65, 34594.11, 9195.69, 187500.00, 187500.00, 187500.00, 187500.00, 187500.00, 187500.00, 0.000, 0.000, 0.000, 03:05:24.474
66, 34617.66, 9229.24, 187500.00, 187500.00, 187500.00, 187500.00, 187500.00, 187500.00, 0.000, 0.000, 0.000, 03:05:24.474
67, 34618.96, 9224.83, 187500.00, 187500.00, 187500.00, 187500.00, 187500.00, 187500.00, 0.194, 0.528, -0.870, 03:05:24.481
68, 34602.89, 9206.19, 187500.00, 187500.00, 187500.00, 187500.00, 187500.00, 187500.00, 0.000, 0.000, 0.000, 03:05:24.481
69, 34587.51, 9194.39, 187500.00, 187500.00, 187500.00, 187500.00, 187500.00, 187500.00, 0.000, 0.000, 0.000, 03:05:24.481
70, 34620.37, 9212.11, 187500.00, 187500.00, 187500.00, 187500.00, 187500.00, 187500.00, 0.000, 0.000, 0.000, 03:05:24.481
71, 34625.58, 9202.82, 187500.00, 187500.00, 187500.00, 187500.00, 187500.00, 187500.00, 0.000, 0.000, 0.000, 03:05:24.481
72, 34608.16, 9210.86, 187500.00, 187500.00, 187500.00, 187500.00, 187500.00, 187500.00, 0.000, 0.000, 0.000, 03:05:24.482
73, 34590.24, 9200.11, 187500.00, 187500.00, 187500.00, 187500.00, 187500.00, 187500.00, 0.000, 0.000, 0.000, 03:05:24.482
74, 34628.75, 9209.12, 187500.00, 187500.00, 187500.00, 187500.00, 187500.00, 187500.00, 0.000, 0.000, 0.000, 03:05:24.484
75, 34628.62, 9206.73, 187500.00, 187500.00, 187500.00, 187500.00, 187500.00, 187500.00, 0.000, 0.000, 0.000, 03:05:24.484
76, 34617.73, 9187.44, 187500.00, 187500.00, 187500.00, 187500.00, 187500.00, 187500.00, 0.192, 0.524, -0.868, 03:05:24.484
77, 34595.22, 9182.21, 187500.00, 187500.00, 187500.00, 187500.00, 187500.00, 187500.00, 0.000, 0.000, 0.000, 03:05:24.484
78, 34607.29, 9207.93, 187500.00, 187500.00, 187500.00, 187500.00, 187500.00, 187500.00, 0.000, 0.000, 0.000, 03:05:24.484
79, 34615.34, 9219.56, 187500.00, 187500.00, 187500.00, 187500.00, 187500.00, 187500.00, 0.000, 0.000, 0.000, 03:05:24.484
80, 34594.84, 9206.86, 187500.00, 187500.00, 187500.00, 187500.00, 187500.00, 187500.00, 0.000, 0.000, 0.000, 03:05:24.485
81, 34588.63, 9193.96, 187500.00, 187500.00, 187500.00, 187500.00, 187500.00, 187500.00, 0.000, 0.000, 0.000, 03:05:24.485
82, 34603.83, 9195.71, 187500.00, 187500.00, 187500.00, 187500.00, 187500.00, 187500.00, 0.000, 0.000, 0.000, 03:05:24.485
83, 34633.20, 9203.46, 187500.00, 187500.00, 187500.00, 187500.00, 187500.00, 187500.00, 0.000, 0.000, 0.000, 03:05:24.485
84, 34623.88, 9206.39, 187500.00, 187500.00, 187500.00, 187500.00, 187500.00, 187500.00, 0.000, 0.000, 0.000, 03:05:24.485
85, 34605.02, 9204.65, 187500.00, 187500.00, 187500.00, 187500.00, 187500.00, 187500.00, 0.000, 0.000, 0.000, 03:05:24.485
86, 34604.59, 9210.82, 187500.00, 187500.00, 187500.00, 187500.00, 187500.00, 187500.00, 0.192, 0.528, -0.872, 03:05:24.485
87, 34626.47, 9232.88, 187500.00, 187500.00, 187500.00, 187500.00, 187500.00, 187500.00, 0.000, 0.000, 0.000, 03:05:24.485
88, 34628.04, 9199.20, 187500.00, 187500.00, 187500.00, 187500.00, 187500.00, 187500.00, 0.000, 0.000, 0.000, 03:05:24.485
89, 34607.03, 9206.44, 187500.00, 187500.00, 187500.00, 187500.00, 187500.00, 187500.00, 0.000, 0.000, 0.000, 03:05:24.486
90, 34607.68, 9220.09, 187500.00, 187500.00, 187500.00, 187500.00, 187500.00, 187500.00, 0.000, 0.000, 0.000, 03:05:24.486
91, 34640.57, 9230.60, 187500.00, 187500.00, 187500.00, 187500.00, 187500.00, 187500.00, 0.000, 0.000, 0.000, 03:05:24.486
92, 34625.24, 9217.77, 187500.00, 187500.00, 187500.00, 187500.00, 187500.00, 187500.00, 0.000, 0.000, 0.000, 03:05:24.486
93, 34602.24, 9198.99, 187500.00, 187500.00, 187500.00, 187500.00, 187500.00, 187500.00, 0.000, 0.000, 0.000, 03:05:24.486
94, 34591.80, 9189.14, 187500.00, 187500.00, 187500.00, 187500.00, 187500.00, 187500.00, 0.000, 0.000, 0.000, 03:05:24.486
95, 34608.73, 9212.36, 187500.00, 187500.00, 187500.00, 187500.00, 187500.00, 187500.00, 0.000, 0.000, 0.000, 03:05:24.486
96, 34614.87, 9209.12, 187500.00, 187500.00, 187500.00, 187500.00, 187500.00, 187500.00, 0.192, 0.522, -0.864, 03:05:24.486
97, 34603.92, 9207.20, 187500.00, 187500.00, 187500.00, 187500.00, 187500.00, 187500.00, 0.000, 0.000, 0.000, 03:05:24.486
98, 34584.94, 9186.70, 187500.00, 187500.00, 187500.00, 187500.00, 187500.00, 187500.00, 0.000, 0.000, 0.000, 03:05:24.486
99, 34616.21, 9200.09, 187500.00, 187500.00, 187500.00, 187500.00, 187500.00, 187500.00, 0.000, 0.000, 0.000, 03:05:24.487
100, 34626.67, 9212.96, 187500.00, 187500.00, 187500.00, 187500.00, 187500.00, 187500.00, 0.000, 0.000, 0.000, 03:05:24.487
101, 34608.93, 9212.54, 187500.00, 187500.00, 187500.00, 187500.00, 187500.00, 187500.00, 0.000, 0.000, 0.000, 03:05:24.487
102, 34594.89, 9186.72, 187500.00, 187500.00, 187500.00, 187500.00, 187500.00, 187500.00, 0.000, 0.000, 0.000, 03:05:24.487
103, 34611.07, 9200.60, 187500.00, 187500.00, 187500.00, 187500.00, 187500.00, 187500.00, 0.000, 0.000, 0.000, 03:05:24.487
104, 34632.82, 9205.48, 187500.00, 187500.00, 187500.00, 187500.00, 187500.00, 187500.00, 0.000, 0.000, 0.000, 03:05:24.487
105, 34622.88, 9217.21, 187500.00, 187500.00, 187500.00, 187500.00, 187500.00, 187500.00, 0.000, 0.000, 0.000, 03:05:24.487
106, 34596.14, 9194.79, 187500.00, 187500.00, 187500.00, 187500.00, 187500.00, 187500.00, 0.194, 0.528, -0.868, 03:05:24.487
107, 34604.95, 9190.05, 187500.00, 187500.00, 187500.00, 187500.00, 187500.00, 187500.00, 0.000, 0.000, 0.000, 03:05:24.487
108, 34635.17, 9217.10, 187500.00, 187500.00, 187500.00, 187500.00, 187500.00, 187500.00, 0.000, 0.000, 0.000, 03:05:24.487
109, 34626.54, 9226.62, 187500.00, 187500.00, 187500.00, 187500.00, 187500.00, 187500.00, 0.000, 0.000, 0.000, 03:05:24.488
110, 34596.66, 9195.62, 187500.00, 187500.00, 187500.00, 187500.00, 187500.00, 187500.00, 0.000, 0.000, 0.000, 03:05:24.488
111, 34600.14, 9189.90, 187500.00, 187500.00, 187500.00, 187500.00, 187500.00, 187500.00, 0.000, 0.000, 0.000, 03:05:24.488
112, 34622.27, 9206.95, 187500.00, 187500.00, 187500.00, 187500.00, 187500.00, 187500.00, 0.000, 0.000, 0.000, 03:05:24.488
113, 34608.01, 9209.50, 187500.00, 187500.00, 187500.00, 187500.00, 187500.00, 187500.00, 0.000, 0.000, 0.000, 03:05:24.488
114, 34585.14, 9176.69, 187500.00, 187500.00, 187500.00, 187500.00, 187500.00, 187500.00, 0.000, 0.000, 0.000, 03:05:24.488
115, 34582.04, 9172.71, 187500.00, 187500.00, 187500.00, 187500.00, 187500.00, 187500.00, 0.000, 0.000, 0.000, 03:05:24.488
116, 34604.43, 9197.54, 187500.00, 187500.00, 187500.00, 187500.00, 187500.00, 187500.00, 0.198, 0.530, -0.864, 03:05:24.488
117, 34604.03, 9197.65, 187500.00, 187500.00, 187500.00, 187500.00, 187500.00, 187500.00, 0.000, 0.000, 0.000, 03:05:24.488
118, 34590.60, 9198.28, 187500.00, 187500.00, 187500.00, 187500.00, 187500.00, 187500.00, 0.000, 0.000, 0.000, 03:05:24.489
119, 34579.73, 9188.11, 187500.00, 187500.00, 187500.00, 187500.00, 187500.00, 187500.00, 0.000, 0.000, 0.000, 03:05:24.489
120, 34613.38, 9207.78, 187500.00, 187500.00, 187500.00, 187500.00, 187500.00, 187500.00, 0.000, 0.000, 0.000, 03:05:24.489
121, 34623.61, 9211.06, 187500.00, 187500.00, 187500.00, 187500.00, 187500.00, 187500.00, 0.000, 0.000, 0.000, 03:05:24.946
122, 34612.10, 9197.79, 187500.00, 187500.00, 187500.00, 187500.00, 187500.00, 187500.00, 0.000, 0.000, 0.000, 03:05:24.946
123, 34595.05, 9179.93, 187500.00, 187500.00, 187500.00, 187500.00, 187500.00, 187500.00, 0.000, 0.000, 0.000, 03:05:24.947
124, 34615.65, 9224.97, 187500.00, 187500.00, 187500.00, 187500.00, 187500.00, 187500.00, 0.000, 0.000, 0.000, 03:05:24.947
125, 34617.22, 9223.92, 187500.00, 187500.00, 187500.00, 187500.00, 187500.00, 187500.00, 0.000, 0.000, 0.000, 03:05:24.947
126, 34606.63, 9209.10, 187500.00, 187500.00, 187500.00, 187500.00, 187500.00, 187500.00, 0.196, 0.522, -0.868, 03:05:24.947
127, 34585.79, 9180.15, 187500.00, 187500.00, 187500.00, 187500.00, 187500.00, 187500.00, 0.000, 0.000, 0.000, 03:05:24.947
128, 34604.97, 9201.18, 187500.00, 187500.00, 187500.00, 187500.00, 187500.00, 187500.00, 0.000, 0.000, 0.000, 03:05:24.947
129, 34631.41, 9220.88, 187500.00, 187500.00, 187500.00, 187500.00, 187500.00, 187500.00, 0.000, 0.000, 0.000, 03:05:24.947
130, 34626.96, 9225.37, 187500.00, 187500.00, 187500.00, 187500.00, 187500.00, 187500.00, 0.000, 0.000, 0.000, 03:05:24.947
131, 34602.53, 9198.95, 187500.00, 187500.00, 187500.00, 187500.00, 187500.00, 187500.00, 0.000, 0.000, 0.000, 03:05:24.948
132, 34608.23, 9208.58, 187500.00, 187500.00, 187500.00, 187500.00, 187500.00, 187500.00, 0.000, 0.000, 0.000, 03:05:24.948
133, 34629.13, 9214.55, 187500.00, 187500.00, 187500.00, 187500.00, 187500.00, 187500.00, 0.000, 0.000, 0.000, 03:05:24.948
134, 34621.93, 9203.08, 187500.00, 187500.00, 187500.00, 187500.00, 187500.00, 187500.00, 0.000, 0.000, 0.000, 03:05:24.948
135, 34593.66, 9191.46, 187500.00, 187500.00, 187500.00, 187500.00, 187500.00, 187500.00, 0.000, 0.000, 0.000, 03:05:24.948
136, 34596.72, 9201.18, 187500.00, 187500.00, 187500.00, 187500.00, 187500.00, 187500.00, 0.190, 0.522, -0.868, 03:05:24.948
137, 34616.44, 9217.52, 187500.00, 187500.00, 187500.00, 187500.00, 187500.00, 187500.00, 0.000, 0.000, 0.000, 03:05:24.948
138, 34601.30, 9203.62, 187500.00, 187500.00, 187500.00, 187500.00, 187500.00, 187500.00, 0.000, 0.000, 0.000, 03:05:24.949
139, 34580.74, 9179.30, 187500.00, 187500.00, 187500.00, 187500.00, 187500.00, 187500.00, 0.000, 0.000, 0.000, 03:05:24.949
140, 34593.37, 9170.72, 187500.00, 187500.00, 187500.00, 187500.00, 187500.00, 187500.00, 0.000, 0.000, 0.000, 03:05:24.949
141, 34619.45, 9184.02, 187500.00, 187500.00, 187500.00, 187500.00, 187500.00, 187500.00, 0.000, 0.000, 0.000, 03:05:24.949
142, 34622.43, 9214.82, 187500.00, 187500.00, 187500.00, 187500.00, 187500.00, 187500.00, 0.000, 0.000, 0.000, 03:05:24.949
143, 34605.89, 9204.27, 187500.00, 187500.00, 187500.00, 187500.00, 187500.00, 187500.00, 0.000, 0.000, 0.000, 03:05:24.949
144, 34590.71, 9189.72, 187500.00, 187500.00, 187500.00, 187500.00, 187500.00, 187500.00, 0.000, 0.000, 0.000, 03:05:24.949
145, 34605.77, 9210.55, 187500.00, 187500.00, 187500.00, 187500.00, 187500.00, 187500.00, 0.192, 0.526, -0.866, 03:05:24.950
146, 34609.44, 9211.27, 187500.00, 187500.00, 187500.00, 187500.00, 187500.00, 187500.00, 0.000, 0.000, 0.000, 03:05:24.950
147, 34611.18, 9203.91, 187500.00, 187500.00, 187500.00, 187500.00, 187500.00, 187500.00, 0.000, 0.000, 0.000, 03:05:24.950
148, 34602.29, 9184.13, 187500.00, 187500.00, 187500.00, 187500.00, 187500.00, 187500.00, 0.000, 0.000, 0.000, 03:05:24.950
149, 34613.87, 9197.81, 187500.00, 187500.00, 187500.00, 187500.00, 187500.00, 187500.00, 0.000, 0.000, 0.000, 03:05:24.950
150, 34611.43, 9191.51, 187500.00, 187500.00, 187500.00, 187500.00, 187500.00, 187500.00, 0.000, 0.000, 0.000, 03:05:24.951
151, 34606.36, 9185.58, 187500.00, 187500.00, 187500.00, 187500.00, 187500.00, 187500.00, 0.000, 0.000, 0.000, 03:05:24.951
152, 34593.08, 9181.16, 187500.00, 187500.00, 187500.00, 187500.00, 187500.00, 187500.00, 0.000, 0.000, 0.000, 03:05:24.951
153, 34607.96, 9207.60, 187500.00, 187500.00, 187500.00, 187500.00, 187500.00, 187500.00, 0.000, 0.000, 0.000, 03:05:24.951
154, 34628.46, 9217.37, 187500.00, 187500.00, 187500.00, 187500.00, 187500.00, 187500.00, 0.000, 0.000, 0.000, 03:05:24.952
155, 34616.10, 9201.14, 187500.00, 187500.00, 187500.00, 187500.00, 187500.00, 187500.00, 0.190, 0.524, -0.864, 03:05:24.952
156, 34590.55, 9178.61, 187500.00, 187500.00, 187500.00, 187500.00, 187500.00, 187500.00, 0.000, 0.000, 0.000, 03:05:24.952
157, 34602.20, 9198.37, 187500.00, 187500.00, 187500.00, 187500.00, 187500.00, 187500.00, 0.000, 0.000, 0.000, 03:05:24.952
158, 34616.57, 9212.41, 187500.00, 187500.00, 187500.00, 187500.00, 187500.00, 187500.00, 0.000, 0.000, 0.000, 03:05:24.952
159, 34612.28, 9201.97, 187500.00, 187500.00, 187500.00, 187500.00, 187500.00, 187500.00, 0.000, 0.000, 0.000, 03:05:24.953
160, 34592.99, 9168.13, 187500.00, 187500.00, 187500.00, 187500.00, 187500.00, 187500.00, 0.000, 0.000, 0.000, 03:05:24.953
161, 34594.44, 9185.14, 187500.00, 187500.00, 187500.00, 187500.00, 187500.00, 187500.00, 0.000, 0.000, 0.000, 03:05:24.953
162, 34624.64, 9227.45, 187500.00, 187500.00, 187500.00, 187500.00, 187500.00, 187500.00, 0.000, 0.000, 0.000, 03:05:24.953
163, 34620.97, 9215.49, 187500.00, 187500.00, 187500.00, 187500.00, 187500.00, 187500.00, 0.000, 0.000, 0.000, 03:05:24.953
164, 34605.77, 9201.45, 187500.00, 187500.00, 187500.00, 187500.00, 187500.00, 187500.00, 0.000, 0.000, 0.000, 03:05:24.953
165, 34600.81, 9194.19, 187500.00, 187500.00, 187500.00, 187500.00, 187500.00, 187500.00, 0.190, 0.526, -0.868, 03:05:24.954
166, 34630.29, 9214.84, 187500.00, 187500.00, 187500.00, 187500.00, 187500.00, 187500.00, 0.000, 0.000, 0.000, 03:05:24.954
167, 34635.30, 9221.50, 187500.00, 187500.00, 187500.00, 187500.00, 187500.00, 187500.00, 0.000, 0.000, 0.000, 03:05:24.954
168, 34621.04, 9194.05, 187500.00, 187500.00, 187500.00, 187500.00, 187500.00, 187500.00, 0.000, 0.000, 0.000, 03:05:24.954
169, 34604.14, 9186.95, 187500.00, 187500.00, 187500.00, 187500.00, 187500.00, 187500.00, 0.000, 0.000, 0.000, 03:05:24.954
170, 34627.63, 9229.77, 187500.00, 187500.00, 187500.00, 187500.00, 187500.00, 187500.00, 0.000, 0.000, 0.000, 03:05:24.955
171, 34636.33, 9228.28, 187500.00, 187500.00, 187500.00, 187500.00, 187500.00, 187500.00, 0.000, 0.000, 0.000, 03:05:24.955
172, 34622.45, 9200.07, 187500.00, 187500.00, 187500.00, 187500.00, 187500.00, 187500.00, 0.000, 0.000, 0.000, 03:05:24.955
173, 34607.09, 9182.28, 187500.00, 187500.00, 187500.00, 187500.00, 187500.00, 187500.00, 0.000, 0.000, 0.000, 03:05:24.955
174, 34622.56, 9205.77, 187500.00, 187500.00, 187500.00, 187500.00, 187500.00, 187500.00, 0.000, 0.000, 0.000, 03:05:24.956
175, 34628.75, 9224.36, 187500.00, 187500.00, 187500.00, 187500.00, 187500.00, 187500.00, 0.194, 0.524, -0.870, 03:05:24.956
176, 34640.24, 9217.17, 187500.00, 187500.00, 187500.00, 187500.00, 187500.00, 187500.00, 0.000, 0.000, 0.000, 03:05:24.956
177, 34628.30, 9202.53, 187500.00, 187500.00, 187500.00, 187500.00, 187500.00, 187500.00, 0.000, 0.000, 0.000, 03:05:24.956
178, 34645.96, 9203.62, 187500.00, 187500.00, 187500.00, 187500.00, 187500.00, 187500.00, 0.000, 0.000, 0.000, 03:05:24.956
179, 34662.82, 9236.10, 187500.00, 187500.00, 187500.00, 187500.00, 187500.00, 187500.00, 0.000, 0.000, 0.000, 03:05:24.956
180, 34648.73, 9250.02, 187500.00, 187500.00, 187500.00, 187500.00, 187500.00, 187500.00, 0.000, 0.000, 0.000, 03:05:24.956
181, 34618.47, 9210.15, 187500.00, 187500.00, 187500.00, 187500.00, 187500.00, 187500.00, 0.000, 0.000, 0.000, 03:05:24.956
182, 34626.09, 9223.27, 187500.00, 187500.00, 187500.00, 187500.00, 187500.00, 187500.00, 0.000, 0.000, 0.000, 03:05:24.956
183, 34637.58, 9239.12, 187500.00, 187500.00, 187500.00, 187500.00, 187500.00, 187500.00, 0.000, 0.000, 0.000, 03:05:24.956
184, 34622.79, 9228.54, 187500.00, 187500.00, 187500.00, 187500.00, 187500.00, 187500.00, 0.000, 0.000, 0.000, 03:05:24.956
185, 34605.44, 9209.19, 187500.00, 187500.00, 187500.00, 187500.00, 187500.00, 187500.00, 0.192, 0.522, -0.868, 03:05:24.957
186, 34604.16, 9205.54, 187500.00, 187500.00, 187500.00, 187500.00, 187500.00, 187500.00, 0.000, 0.000, 0.000, 03:05:24.957
187, 34627.12, 9221.64, 187500.00, 187500.00, 187500.00, 187500.00, 187500.00, 187500.00, 0.000, 0.000, 0.000, 03:05:24.957
188, 34632.21, 9223.89, 187500.00, 187500.00, 187500.00, 187500.00, 187500.00, 187500.00, 0.000, 0.000, 0.000, 03:05:24.957
189, 34623.97, 9202.44, 187500.00, 187500.00, 187500.00, 187500.00, 187500.00, 187500.00, 0.000, 0.000, 0.000, 03:05:24.957
190, 34614.65, 9188.38, 187500.00, 187500.00, 187500.00, 187500.00, 187500.00, 187500.00, 0.000, 0.000, 0.000, 03:05:24.958
191, 34633.56, 9219.13, 187500.00, 187500.00, 187500.00, 187500.00, 187500.00, 187500.00, 0.000, 0.000, 0.000, 03:05:24.958
192, 34641.56, 9232.08, 187500.00, 187500.00, 187500.00, 187500.00, 187500.00, 187500.00, 0.000, 0.000, 0.000, 03:05:24.958
193, 34628.15, 9227.34, 187500.00, 187500.00, 187500.00, 187500.00, 187500.00, 187500.00, 0.000, 0.000, 0.000, 03:05:24.958
194, 34614.45, 9227.87, 187500.00, 187500.00, 187500.00, 187500.00, 187500.00, 187500.00, 0.000, 0.000, 0.000, 03:05:24.958
195, 34632.55, 9238.67, 187500.00, 187500.00, 187500.00, 187500.00, 187500.00, 187500.00, 0.198, 0.526, -0.872, 03:05:24.958
196, 34634.88, 9235.14, 187500.00, 187500.00, 187500.00, 187500.00, 187500.00, 187500.00, 0.000, 0.000, 0.000, 03:05:24.958
197, 34631.50, 9235.47, 187500.00, 187500.00, 187500.00, 187500.00, 187500.00, 187500.00, 0.000, 0.000, 0.000, 03:05:24.958
198, 34610.94, 9207.62, 187500.00, 187500.00, 187500.00, 187500.00, 187500.00, 187500.00, 0.000, 0.000, 0.000, 03:05:24.959
199, 34634.56, 9223.42, 187500.00, 187500.00, 187500.00, 187500.00, 187500.00, 187500.00, 0.000, 0.000, 0.000, 03:05:24.959
200, 34640.57, 9247.14, 187500.00, 187500.00, 187500.00, 187500.00, 187500.00, 187500.00, 0.000, 0.000, 0.000, 03:05:24.959
201, 34628.84, 9229.24, 187500.00, 187500.00, 187500.00, 187500.00, 187500.00, 187500.00, 0.000, 0.000, 0.000, 03:05:24.959
202, 34609.35, 9218.87, 187500.00, 187500.00, 187500.00, 187500.00, 187500.00, 187500.00, 0.000, 0.000, 0.000, 03:05:24.959
203, 34607.41, 9223.20, 187500.00, 187500.00, 187500.00, 187500.00, 187500.00, 187500.00, 0.000, 0.000, 0.000, 03:05:24.959
204, 34644.78, 9242.74, 187500.00, 187500.00, 187500.00, 187500.00, 187500.00, 187500.00, 0.192, 0.524, -0.874, 03:05:24.959
205, 34633.00, 9236.99, 187500.00, 187500.00, 187500.00, 187500.00, 187500.00, 187500.00, 0.000, 0.000, 0.000, 03:05:24.959
206, 34607.79, 9211.42, 187500.00, 187500.00, 187500.00, 187500.00, 187500.00, 187500.00, 0.000, 0.000, 0.000, 03:05:24.959
207, 34622.09, 9215.20, 187500.00, 187500.00, 187500.00, 187500.00, 187500.00, 187500.00, 0.000, 0.000, 0.000, 03:05:24.960
208, 34646.12, 9243.92, 187500.00, 187500.00, 187500.00, 187500.00, 187500.00, 187500.00, 0.000, 0.000, 0.000, 03:05:24.960
209, 34640.64, 9229.44, 187500.00, 187500.00, 187500.00, 187500.00, 187500.00, 187500.00, 0.000, 0.000, 0.000, 03:05:24.960
210, 34612.75, 9202.12, 187500.00, 187500.00, 187500.00, 187500.00, 187500.00, 187500.00, 0.000, 0.000, 0.000, 03:05:24.960
211, 34603.27, 9204.47, 187500.00, 187500.00, 187500.00, 187500.00, 187500.00, 187500.00, 0.000, 0.000, 0.000, 03:05:24.960
212, 34637.43, 9227.34, 187500.00, 187500.00, 187500.00, 187500.00, 187500.00, 187500.00, 0.000, 0.000, 0.000, 03:05:24.960
213, 34632.66, 9233.35, 187500.00, 187500.00, 187500.00, 187500.00, 187500.00, 187500.00, 0.000, 0.000, 0.000, 03:05:24.960
214, 34611.41, 9212.34, 187500.00, 187500.00, 187500.00, 187500.00, 187500.00, 187500.00, 0.190, 0.526, -0.870, 03:05:24.960
215, 34606.55, 9200.29, 187500.00, 187500.00, 187500.00, 187500.00, 187500.00, 187500.00, 0.000, 0.000, 0.000, 03:05:24.961
216, 34643.62, 9221.46, 187500.00, 187500.00, 187500.00, 187500.00, 187500.00, 187500.00, 0.000, 0.000, 0.000, 03:05:24.961
217, 34646.43, 9258.72, 187500.00, 187500.00, 187500.00, 187500.00, 187500.00, 187500.00, 0.000, 0.000, 0.000, 03:05:24.961
218, 34623.66, 9229.66, 187500.00, 187500.00, 187500.00, 187500.00, 187500.00, 187500.00, 0.000, 0.000, 0.000, 03:05:24.961
219, 34615.72, 9216.47, 187500.00, 187500.00, 187500.00, 187500.00, 187500.00, 187500.00, 0.000, 0.000, 0.000, 03:05:24.961
220, 34638.68, 9235.92, 187500.00, 187500.00, 187500.00, 187500.00, 187500.00, 187500.00, 0.000, 0.000, 0.000, 03:05:24.961
221, 34649.65, 9246.18, 187500.00, 187500.00, 187500.00, 187500.00, 187500.00, 187500.00, 0.000, 0.000, 0.000, 03:05:24.961
222, 34640.13, 9239.65, 187500.00, 187500.00, 187500.00, 187500.00, 187500.00, 187500.00, 0.000, 0.000, 0.000, 03:05:24.961
223, 34611.52, 9216.34, 187500.00, 187500.00, 187500.00, 187500.00, 187500.00, 187500.00, 0.000, 0.000, 0.000, 03:05:24.961
224, 34619.61, 9225.88, 187500.00, 187500.00, 187500.00, 187500.00, 187500.00, 187500.00, 0.196, 0.528, -0.872, 03:05:24.962
225, 34645.25, 9246.11, 187500.00, 187500.00, 187500.00, 187500.00, 187500.00, 187500.00, 0.000, 0.000, 0.000, 03:05:24.962
226, 34630.74, 9237.66, 187500.00, 187500.00, 187500.00, 187500.00, 187500.00, 187500.00, 0.000, 0.000, 0.000, 03:05:24.962
227, 34607.34, 9211.33, 187500.00, 187500.00, 187500.00, 187500.00, 187500.00, 187500.00, 0.000, 0.000, 0.000, 03:05:24.962
228, 34616.39, 9210.84, 187500.00, 187500.00, 187500.00, 187500.00, 187500.00, 187500.00, 0.000, 0.000, 0.000, 03:05:24.962
229, 34636.39, 9243.09, 187500.00, 187500.00, 187500.00, 187500.00, 187500.00, 187500.00, 0.000, 0.000, 0.000, 03:05:24.962
230, 34646.86, 9245.20, 187500.00, 187500.00, 187500.00, 187500.00, 187500.00, 187500.00, 0.000, 0.000, 0.000, 03:05:24.962
231, 34615.45, 9216.94, 187500.00, 187500.00, 187500.00, 187500.00, 187500.00, 187500.00, 0.000, 0.000, 0.000, 03:05:24.962
232, 34620.37, 9208.61, 187500.00, 187500.00, 187500.00, 187500.00, 187500.00, 187500.00, 0.000, 0.000, 0.000, 03:05:24.962
233, 34649.29, 9236.19, 187500.00, 187500.00, 187500.00, 187500.00, 187500.00, 187500.00, 0.000, 0.000, 0.000, 03:05:24.962
234, 34642.95, 9248.08, 187500.00, 187500.00, 187500.00, 187500.00, 187500.00, 187500.00, 0.192, 0.526, -0.874, 03:05:24.963
235, 34619.14, 9223.83, 187500.00, 187500.00, 187500.00, 187500.00, 187500.00, 187500.00, 0.000, 0.000, 0.000, 03:05:24.963
236, 34604.81, 9221.41, 187500.00, 187500.00, 187500.00, 187500.00, 187500.00, 187500.00, 0.000, 0.000, 0.000, 03:05:24.963
237, 34631.25, 9233.91, 187500.00, 187500.00, 187500.00, 187500.00, 187500.00, 187500.00, 0.000, 0.000, 0.000, 03:05:24.963
238, 34634.38, 9228.12, 187500.00, 187500.00, 187500.00, 187500.00, 187500.00, 187500.00, 0.000, 0.000, 0.000, 03:05:24.963
239, 34619.63, 9238.29, 187500.00, 187500.00, 187500.00, 187500.00, 187500.00, 187500.00, 0.000, 0.000, 0.000, 03:05:24.963
240, 34614.80, 9216.67, 187500.00, 187500.00, 187500.00, 187500.00, 187500.00, 187500.00, 0.000, 0.000, 0.000, 03:05:24.964
241, 34645.79, 9234.60, 187500.00, 187500.00, 187500.00, 187500.00, 187500.00, 187500.00, 0.000, 0.000, 0.000, 03:05:25.426
242, 34645.71, 9242.98, 187500.00, 187500.00, 187500.00, 187500.00, 187500.00, 187500.00, 0.000, 0.000, 0.000, 03:05:25.426
243, 34633.87, 9232.52, 187500.00, 187500.00, 187500.00, 187500.00, 187500.00, 187500.00, 0.000, 0.000, 0.000, 03:05:25.426
244, 34608.23, 9222.67, 187500.00, 187500.00, 187500.00, 187500.00, 187500.00, 187500.00, 0.186, 0.528, -0.874, 03:05:25.426
245, 34632.04, 9239.96, 187500.00, 187500.00, 187500.00, 187500.00, 187500.00, 187500.00, 0.000, 0.000, 0.000, 03:05:25.426
246, 34643.21, 9255.14, 187500.00, 187500.00, 187500.00, 187500.00, 187500.00, 187500.00, 0.000, 0.000, 0.000, 03:05:25.426
247, 34637.58, 9235.47, 187500.00, 187500.00, 187500.00, 187500.00, 187500.00, 187500.00, 0.000, 0.000, 0.000, 03:05:25.427
248, 34609.80, 9209.25, 187500.00, 187500.00, 187500.00, 187500.00, 187500.00, 187500.00, 0.000, 0.000, 0.000, 03:05:25.427
249, 34623.36, 9216.27, 187500.00, 187500.00, 187500.00, 187500.00, 187500.00, 187500.00, 0.000, 0.000, 0.000, 03:05:25.427
250, 34630.72, 9232.79, 187500.00, 187500.00, 187500.00, 187500.00, 187500.00, 187500.00, 0.000, 0.000, 0.000, 03:05:25.427
251, 34637.20, 9243.72, 187500.00, 187500.00, 187500.00, 187500.00, 187500.00, 187500.00, 0.000, 0.000, 0.000, 03:05:25.427
252, 34604.50, 9213.79, 187500.00, 187500.00, 187500.00, 187500.00, 187500.00, 187500.00, 0.000, 0.000, 0.000, 03:05:25.427
253, 34611.07, 9215.94, 187500.00, 187500.00, 187500.00, 187500.00, 187500.00, 187500.00, 0.000, 0.000, 0.000, 03:05:25.427
254, 34635.68, 9222.89, 187500.00, 187500.00, 187500.00, 187500.00, 187500.00, 187500.00, 0.192, 0.524, -0.870, 03:05:25.427
255, 34634.72, 9225.93, 187500.00, 187500.00, 187500.00, 187500.00, 187500.00, 187500.00, 0.000, 0.000, 0.000, 03:05:25.427
0, 34599.85, 9233.35, 187500.00, 187500.00, 187500.00, 187500.00, 187500.00, 187500.00, 0.000, 0.000, 0.000, 03:05:25.428
1, 34605.37, 9228.16, 187500.00, 187500.00, 187500.00, 187500.00, 187500.00, 187500.00, 0.000, 0.000, 0.000, 03:05:25.428
2, 34630.18, 9242.09, 187500.00, 187500.00, 187500.00, 187500.00, 187500.00, 187500.00, 0.000, 0.000, 0.000, 03:05:25.428
3, 34636.39, 9243.81, 187500.00, 187500.00, 187500.00, 187500.00, 187500.00, 187500.00, 0.000, 0.000, 0.000, 03:05:25.428
4, 34615.90, 9223.09, 187500.00, 187500.00, 187500.00, 187500.00, 187500.00, 187500.00, 0.000, 0.000, 0.000, 03:05:25.428
5, 34608.28, 9203.84, 187500.00, 187500.00, 187500.00, 187500.00, 187500.00, 187500.00, 0.000, 0.000, 0.000, 03:05:25.428
6, 34636.80, 9236.77, 187500.00, 187500.00, 187500.00, 187500.00, 187500.00, 187500.00, 0.000, 0.000, 0.000, 03:05:25.428
7, 34637.98, 9244.19, 187500.00, 187500.00, 187500.00, 187500.00, 187500.00, 187500.00, 0.000, 0.000, 0.000, 03:05:25.429
8, 34621.60, 9222.84, 187500.00, 187500.00, 187500.00, 187500.00, 187500.00, 187500.00, 0.192, 0.528, -0.870, 03:05:25.429
9, 34605.19, 9210.73, 187500.00, 187500.00, 187500.00, 187500.00, 187500.00, 187500.00, 0.000, 0.000, 0.000, 03:05:25.429
10, 34628.80, 9237.89, 187500.00, 187500.00, 187500.00, 187500.00, 187500.00, 187500.00, 0.000, 0.000, 0.000, 03:05:25.429
11, 34630.03, 9234.78, 187500.00, 187500.00, 187500.00, 187500.00, 187500.00, 187500.00, 0.000, 0.000, 0.000, 03:05:25.429
12, 34615.99, 9206.64, 187500.00, 187500.00, 187500.00, 187500.00, 187500.00, 187500.00, 0.000, 0.000, 0.000, 03:05:25.429
13, 34593.57, 9206.59, 187500.00, 187500.00, 187500.00, 187500.00, 187500.00, 187500.00, 0.000, 0.000, 0.000, 03:05:25.429
14, 34614.80, 9225.41, 187500.00, 187500.00, 187500.00, 187500.00, 187500.00, 187500.00, 0.000, 0.000, 0.000, 03:05:25.429
15, 34620.64, 9237.30, 187500.00, 187500.00, 187500.00, 187500.00, 187500.00, 187500.00, 0.000, 0.000, 0.000, 03:05:25.429
16, 34618.18, 9225.97, 187500.00, 187500.00, 187500.00, 187500.00, 187500.00, 187500.00, 0.000, 0.000, 0.000, 03:05:25.430
17, 34597.66, 9209.16, 187500.00, 187500.00, 187500.00, 187500.00, 187500.00, 187500.00, 0.188, 0.530, -0.876, 03:05:25.430
18, 34611.74, 9234.94, 187500.00, 187500.00, 187500.00, 187500.00, 187500.00, 187500.00, 0.000, 0.000, 0.000, 03:05:25.430
19, 34623.54, 9238.67, 187500.00, 187500.00, 187500.00, 187500.00, 187500.00, 187500.00, 0.000, 0.000, 0.000, 03:05:25.430
20, 34620.66, 9236.05, 187500.00, 187500.00, 187500.00, 187500.00, 187500.00, 187500.00, 0.000, 0.000, 0.000, 03:05:25.430
21, 34605.64, 9221.59, 187500.00, 187500.00, 187500.00, 187500.00, 187500.00, 187500.00, 0.000, 0.000, 0.000, 03:05:25.430
22, 34609.77, 9224.50, 187500.00, 187500.00, 187500.00, 187500.00, 187500.00, 187500.00, 0.000, 0.000, 0.000, 03:05:25.430
23, 34629.67, 9241.42, 187500.00, 187500.00, 187500.00, 187500.00, 187500.00, 187500.00, 0.000, 0.000, 0.000, 03:05:25.431
24, 34628.17, 9230.82, 187500.00, 187500.00, 187500.00, 187500.00, 187500.00, 187500.00, 0.000, 0.000, 0.000, 03:05:25.431
25, 34602.87, 9205.92, 187500.00, 187500.00, 187500.00, 187500.00, 187500.00, 187500.00, 0.000, 0.000, 0.000, 03:05:25.431
26, 34588.88, 9197.47, 187500.00, 187500.00, 187500.00, 187500.00, 187500.00, 187500.00, 0.000, 0.000, 0.000, 03:05:25.431
27, 34615.12, 9232.70, 187500.00, 187500.00, 187500.00, 187500.00, 187500.00, 187500.00, 0.192, 0.530, -0.876, 03:05:25.431
28, 34626.27, 9238.83, 187500.00, 187500.00, 187500.00, 187500.00, 187500.00, 187500.00, 0.000, 0.000, 0.000, 03:05:25.432
29, 34606.85, 9209.90, 187500.00, 187500.00, 187500.00, 187500.00, 187500.00, 187500.00, 0.000, 0.000, 0.000, 03:05:25.432
30, 34593.01, 9190.46, 187500.00, 187500.00, 187500.00, 187500.00, 187500.00, 187500.00, 0.000, 0.000, 0.000, 03:05:25.432
31, 34620.37, 9237.22, 187500.00, 187500.00, 187500.00, 187500.00, 187500.00, 187500.00, 0.000, 0.000, 0.000, 03:05:25.432
32, 34630.54, 9230.58, 187500.00, 187500.00, 187500.00, 187500.00, 187500.00, 187500.00, 0.000, 0.000, 0.000, 03:05:25.432
33, 34620.97, 9201.79, 187500.00, 187500.00, 187500.00, 187500.00, 187500.00, 187500.00, 0.000, 0.000, 0.000, 03:05:25.432
34, 34596.70, 9226.53, 187500.00, 187500.00, 187500.00, 187500.00, 187500.00, 187500.00, 0.000, 0.000, 0.000, 03:05:25.432
35, 34620.91, 9233.97, 187500.00, 187500.00, 187500.00, 187500.00, 187500.00, 187500.00, 0.000, 0.000, 0.000, 03:05:25.432
36, 34627.93, 9228.50, 187500.00, 187500.00, 187500.00, 187500.00, 187500.00, 187500.00, 0.000, 0.000, 0.000, 03:05:25.433
37, 34611.18, 9226.67, 187500.00, 187500.00, 187500.00, 187500.00, 187500.00, 187500.00, 0.194, 0.522, -0.868, 03:05:25.433
38, 34592.59, 9209.12, 187500.00, 187500.00, 187500.00, 187500.00, 187500.00, 187500.00, 0.000, 0.000, 0.000, 03:05:25.433
39, 34612.64, 9221.79, 187500.00, 187500.00, 187500.00, 187500.00, 187500.00, 187500.00, 0.000, 0.000, 0.000, 03:05:25.433
40, 34641.13, 9250.78, 187500.00, 187500.00, 187500.00, 187500.00, 187500.00, 187500.00, 0.000, 0.000, 0.000, 03:05:25.433
41, 34629.63, 9247.01, 187500.00, 187500.00, 187500.00, 187500.00, 187500.00, 187500.00, 0.000, 0.000, 0.000, 03:05:25.433
42, 34601.50, 9211.24, 187500.00, 187500.00, 187500.00, 187500.00, 187500.00, 187500.00, 0.000, 0.000, 0.000, 03:05:25.433
43, 34615.03, 9213.08, 187500.00, 187500.00, 187500.00, 187500.00, 187500.00, 187500.00, 0.000, 0.000, 0.000, 03:05:25.433
44, 34641.70, 9234.24, 187500.00, 187500.00, 187500.00, 187500.00, 187500.00, 187500.00, 0.000, 0.000, 0.000, 03:05:25.434
45, 34637.47, 9245.22, 187500.00, 187500.00, 187500.00, 187500.00, 187500.00, 187500.00, 0.000, 0.000, 0.000, 03:05:25.434
46, 34603.11, 9217.97, 187500.00, 187500.00, 187500.00, 187500.00, 187500.00, 187500.00, 0.000, 0.000, 0.000, 03:05:25.434
47, 34617.80, 9221.21, 187500.00, 187500.00, 187500.00, 187500.00, 187500.00, 187500.00, 0.192, 0.526, -0.872, 03:05:25.434
48, 34652.76, 9245.33, 187500.00, 187500.00, 187500.00, 187500.00, 187500.00, 187500.00, 0.000, 0.000, 0.000, 03:05:25.434
49, 34643.82, 9229.21, 187500.00, 187500.00, 187500.00, 187500.00, 187500.00, 187500.00, 0.000, 0.000, 0.000, 03:05:25.434
50, 34616.10, 9200.87, 187500.00, 187500.00, 187500.00, 187500.00, 187500.00, 187500.00, 0.000, 0.000, 0.000, 03:05:25.434
51, 34600.61, 9212.96, 187500.00, 187500.00, 187500.00, 187500.00, 187500.00, 187500.00, 0.000, 0.000, 0.000, 03:05:25.434
52, 34625.98, 9229.15, 187500.00, 187500.00, 187500.00, 187500.00, 187500.00, 187500.00, 0.000, 0.000, 0.000, 03:05:25.434
53, 34631.64, 9236.32, 187500.00, 187500.00, 187500.00, 187500.00, 187500.00, 187500.00, 0.000, 0.000, 0.000, 03:05:25.435
54, 34615.21, 9210.64, 187500.00, 187500.00, 187500.00, 187500.00, 187500.00, 187500.00, 0.000, 0.000, 0.000, 03:05:25.435
55, 34599.25, 9192.91, 187500.00, 187500.00, 187500.00, 187500.00, 187500.00, 187500.00, 0.000, 0.000, 0.000, 03:05:25.435
56, 34623.19, 9246.67, 187500.00, 187500.00, 187500.00, 187500.00, 187500.00, 187500.00, 0.000, 0.000, 0.000, 03:05:25.435
57, 34633.31, 9249.93, 187500.00, 187500.00, 187500.00, 187500.00, 187500.00, 187500.00, 0.186, 0.526, -0.872, 03:05:25.435
58, 34621.38, 9235.38, 187500.00, 187500.00, 187500.00, 187500.00, 187500.00, 187500.00, 0.000, 0.000, 0.000, 03:05:25.435
59, 34602.60, 9209.52, 187500.00, 187500.00, 187500.00, 187500.00, 187500.00, 187500.00, 0.000, 0.000, 0.000, 03:05:25.435
60, 34622.94, 9228.50, 187500.00, 187500.00, 187500.00, 187500.00, 187500.00, 187500.00, 0.000, 0.000, 0.000, 03:05:25.435
61, 34633.36, 9234.02, 187500.00, 187500.00, 187500.00, 187500.00, 187500.00, 187500.00, 0.000, 0.000, 0.000, 03:05:25.435
62, 34627.75, 9220.90, 187500.00, 187500.00, 187500.00, 187500.00, 187500.00, 187500.00, 0.000, 0.000, 0.000, 03:05:25.435
63, 34602.80, 9210.44, 187500.00, 187500.00, 187500.00, 187500.00, 187500.00, 187500.00, 0.000, 0.000, 0.000, 03:05:25.436
64, 34632.42, 9234.89, 187500.00, 187500.00, 187500.00, 187500.00, 187500.00, 187500.00, 0.000, 0.000, 0.000, 03:05:25.436
65, 34648.64, 9242.56, 187500.00, 187500.00, 187500.00, 187500.00, 187500.00, 187500.00, 0.000, 0.000, 0.000, 03:05:25.436
66, 34635.79, 9224.21, 187500.00, 187500.00, 187500.00, 187500.00, 187500.00, 187500.00, 0.000, 0.000, 0.000, 03:05:25.436
67, 34610.58, 9198.66, 187500.00, 187500.00, 187500.00, 187500.00, 187500.00, 187500.00, 0.192, 0.526, -0.870, 03:05:25.436
68, 34618.71, 9207.24, 187500.00, 187500.00, 187500.00, 187500.00, 187500.00, 187500.00, 0.000, 0.000, 0.000, 03:05:25.436
69, 34630.88, 9232.14, 187500.00, 187500.00, 187500.00, 187500.00, 187500.00, 187500.00, 0.000, 0.000, 0.000, 03:05:25.437
70, 34624.37, 9235.05, 187500.00, 187500.00, 187500.00, 187500.00, 187500.00, 187500.00, 0.000, 0.000, 0.000, 03:05:25.437
71, 34612.05, 9229.06, 187500.00, 187500.00, 187500.00, 187500.00, 187500.00, 187500.00, 0.000, 0.000, 0.000, 03:05:25.437
72, 34607.20, 9199.40, 187500.00, 187500.00, 187500.00, 187500.00, 187500.00, 187500.00, 0.000, 0.000, 0.000, 03:05:25.437
73, 34639.86, 9222.06, 187500.00, 187500.00, 187500.00, 187500.00, 187500.00, 187500.00, 0.000, 0.000, 0.000, 03:05:25.437
74, 34624.15, 9238.85, 187500.00, 187500.00, 187500.00, 187500.00, 187500.00, 187500.00, 0.000, 0.000, 0.000, 03:05:25.437
75, 34592.74, 9201.97, 187500.00, 187500.00, 187500.00, 187500.00, 187500.00, 187500.00, 0.000, 0.000, 0.000, 03:05:25.437
76, 34602.20, 9187.84, 187500.00, 187500.00, 187500.00, 187500.00, 187500.00, 187500.00, 0.192, 0.520, -0.868, 03:05:25.437
77, 34633.98, 9227.54, 187500.00, 187500.00, 187500.00, 187500.00, 187500.00, 187500.00, 0.000, 0.000, 0.000, 03:05:25.438
78, 34630.25, 9243.99, 187500.00, 187500.00, 187500.00, 187500.00, 187500.00, 187500.00, 0.000, 0.000, 0.000, 03:05:25.438
79, 34603.76, 9217.37, 187500.00, 187500.00, 187500.00, 187500.00, 187500.00, 187500.00, 0.000, 0.000, 0.000, 03:05:25.438
80, 34600.75, 9202.24, 187500.00, 187500.00, 187500.00, 187500.00, 187500.00, 187500.00, 0.000, 0.000, 0.000, 03:05:25.438
81, 34629.85, 9229.35, 187500.00, 187500.00, 187500.00, 187500.00, 187500.00, 187500.00, 0.000, 0.000, 0.000, 03:05:25.438
82, 34628.02, 9229.42, 187500.00, 187500.00, 187500.00, 187500.00, 187500.00, 187500.00, 0.000, 0.000, 0.000, 03:05:25.438
83, 34623.97, 9226.64, 187500.00, 187500.00, 187500.00, 187500.00, 187500.00, 187500.00, 0.000, 0.000, 0.000, 03:05:25.438
84, 34615.92, 9204.78, 187500.00, 187500.00, 187500.00, 187500.00, 187500.00, 187500.00, 0.000, 0.000, 0.000, 03:05:25.438
85, 34628.46, 9202.28, 187500.00, 187500.00, 187500.00, 187500.00, 187500.00, 187500.00, 0.000, 0.000, 0.000, 03:05:25.438
86, 34639.77, 9239.54, 187500.00, 187500.00, 187500.00, 187500.00, 187500.00, 187500.00, 0.196, 0.520, -0.870, 03:05:25.439
87, 34646.32, 9251.48, 187500.00, 187500.00, 187500.00, 187500.00, 187500.00, 187500.00, 0.000, 0.000, 0.000, 03:05:25.439
88, 34619.21, 9227.43, 187500.00, 187500.00, 187500.00, 187500.00, 187500.00, 187500.00, 0.000, 0.000, 0.000, 03:05:25.439
89, 34618.96, 9213.01, 187500.00, 187500.00, 187500.00, 187500.00, 187500.00, 187500.00, 0.000, 0.000, 0.000, 03:05:25.439
90, 34630.20, 9215.18, 187500.00, 187500.00, 187500.00, 187500.00, 187500.00, 187500.00, 0.000, 0.000, 0.000, 03:05:25.439
91, 34627.07, 9209.90, 187500.00, 187500.00, 187500.00, 187500.00, 187500.00, 187500.00, 0.000, 0.000, 0.000, 03:05:25.439
92, 34607.50, 9209.66, 187500.00, 187500.00, 187500.00, 187500.00, 187500.00, 187500.00, 0.000, 0.000, 0.000, 03:05:25.439
93, 34613.44, 9225.77, 187500.00, 187500.00, 187500.00, 187500.00, 187500.00, 187500.00, 0.000, 0.000, 0.000, 03:05:25.439
94, 34634.56, 9236.79, 187500.00, 187500.00, 187500.00, 187500.00, 187500.00, 187500.00, 0.000, 0.000, 0.000, 03:05:25.439
95, 34639.12, 9233.80, 187500.00, 187500.00, 187500.00, 187500.00, 187500.00, 187500.00, 0.000, 0.000, 0.000, 03:05:25.439
96, 34611.92, 9209.34, 187500.00, 187500.00, 187500.00, 187500.00, 187500.00, 187500.00, 0.198, 0.522, -0.870, 03:05:25.440
97, 34608.23, 9210.21, 187500.00, 187500.00, 187500.00, 187500.00, 187500.00, 187500.00, 0.000, 0.000, 0.000, 03:05:25.440
98, 34642.12, 9236.72, 187500.00, 187500.00, 187500.00, 187500.00, 187500.00, 187500.00, 0.000, 0.000, 0.000, 03:05:25.440
99, 34642.99, 9226.98, 187500.00, 187500.00, 187500.00, 187500.00, 187500.00, 187500.00, 0.000, 0.000, 0.000, 03:05:25.440
100, 34624.89, 9192.85, 187500.00, 187500.00, 187500.00, 187500.00, 187500.00, 187500.00, 0.000, 0.000, 0.000, 03:05:25.440
101, 34612.75, 9214.64, 187500.00, 187500.00, 187500.00, 187500.00, 187500.00, 187500.00, 0.000, 0.000, 0.000, 03:05:25.440
102, 34630.32, 9232.90, 187500.00, 187500.00, 187500.00, 187500.00, 187500.00, 187500.00, 0.000, 0.000, 0.000, 03:05:25.440
103, 34634.47, 9229.55, 187500.00, 187500.00, 187500.00, 187500.00, 187500.00, 187500.00, 0.000, 0.000, 0.000, 03:05:25.440
104, 34621.69, 9223.54, 187500.00, 187500.00, 187500.00, 187500.00, 187500.00, 187500.00, 0.000, 0.000, 0.000, 03:05:25.440
105, 34604.28, 9210.95, 187500.00, 187500.00, 187500.00, 187500.00, 187500.00, 187500.00, 0.000, 0.000, 0.000, 03:05:25.906
106, 34631.93, 9220.38, 187500.00, 187500.00, 187500.00, 187500.00, 187500.00, 187500.00, 0.194, 0.526, -0.872, 03:05:25.906
107, 34643.21, 9234.65, 187500.00, 187500.00, 187500.00, 187500.00, 187500.00, 187500.00, 0.000, 0.000, 0.000, 03:05:25.906
108, 34649.25, 9232.57, 187500.00, 187500.00, 187500.00, 187500.00, 187500.00, 187500.00, 0.000, 0.000, 0.000, 03:05:25.907
109, 34629.69, 9213.75, 187500.00, 187500.00, 187500.00, 187500.00, 187500.00, 187500.00, 0.000, 0.000, 0.000, 03:05:25.907
110, 34643.48, 9221.30, 187500.00, 187500.00, 187500.00, 187500.00, 187500.00, 187500.00, 0.000, 0.000, 0.000, 03:05:25.907
111, 34652.55, 9224.23, 187500.00, 187500.00, 187500.00, 187500.00, 187500.00, 187500.00, 0.000, 0.000, 0.000, 03:05:25.907
112, 34634.41, 9214.42, 187500.00, 187500.00, 187500.00, 187500.00, 187500.00, 187500.00, 0.000, 0.000, 0.000, 03:05:25.907
113, 34618.18, 9204.51, 187500.00, 187500.00, 187500.00, 187500.00, 187500.00, 187500.00, 0.000, 0.000, 0.000, 03:05:25.907
114, 34626.45, 9217.57, 187500.00, 187500.00, 187500.00, 187500.00, 187500.00, 187500.00, 0.000, 0.000, 0.000, 03:05:25.907
115, 34628.02, 9232.30, 187500.00, 187500.00, 187500.00, 187500.00, 187500.00, 187500.00, 0.000, 0.000, 0.000, 03:05:25.907
116, 34630.07, 9227.69, 187500.00, 187500.00, 187500.00, 187500.00, 187500.00, 187500.00, 0.198, 0.524, -0.870, 03:05:25.908
117, 34609.17, 9211.51, 187500.00, 187500.00, 187500.00, 187500.00, 187500.00, 187500.00, 0.000, 0.000, 0.000, 03:05:25.908
118, 34616.57, 9213.86, 187500.00, 187500.00, 187500.00, 187500.00, 187500.00, 187500.00, 0.000, 0.000, 0.000, 03:05:25.908
119, 34646.12, 9239.05, 187500.00, 187500.00, 187500.00, 187500.00, 187500.00, 187500.00, 0.000, 0.000, 0.000, 03:05:25.908
120, 34644.02, 9236.99, 187500.00, 187500.00, 187500.00, 187500.00, 187500.00, 187500.00, 0.000, 0.000, 0.000, 03:05:25.908
121, 34620.86, 9204.76, 187500.00, 187500.00, 187500.00, 187500.00, 187500.00, 187500.00, 0.000, 0.000, 0.000, 03:05:25.908
122, 34618.63, 9215.58, 187500.00, 187500.00, 187500.00, 187500.00, 187500.00, 187500.00, 0.000, 0.000, 0.000, 03:05:25.908
123, 34642.10, 9249.55, 187500.00, 187500.00, 187500.00, 187500.00, 187500.00, 187500.00, 0.000, 0.000, 0.000, 03:05:25.908
124, 34636.78, 9235.43, 187500.00, 187500.00, 187500.00, 187500.00, 187500.00, 187500.00, 0.000, 0.000, 0.000, 03:05:25.908
125, 34614.38, 9207.04, 187500.00, 187500.00, 187500.00, 187500.00, 187500.00, 187500.00, 0.000, 0.000, 0.000, 03:05:25.909
126, 34608.08, 9200.40, 187500.00, 187500.00, 187500.00, 187500.00, 187500.00, 187500.00, 0.188, 0.520, -0.868, 03:05:25.909
127, 34636.35, 9228.52, 187500.00, 187500.00, 187500.00, 187500.00, 187500.00, 187500.00, 0.000, 0.000, 0.000, 03:05:25.909
128, 34637.43, 9227.27, 187500.00, 187500.00, 187500.00, 187500.00, 187500.00, 187500.00, 0.000, 0.000, 0.000, 03:05:25.909
129, 34617.11, 9214.44, 187500.00, 187500.00, 187500.00, 187500.00, 187500.00, 187500.00, 0.000, 0.000, 0.000, 03:05:25.909
130, 34613.78, 9197.85, 187500.00, 187500.00, 187500.00, 187500.00, 187500.00, 187500.00, 0.000, 0.000, 0.000, 03:05:25.909
131, 34641.92, 9218.33, 187500.00, 187500.00, 187500.00, 187500.00, 187500.00, 187500.00, 0.000, 0.000, 0.000, 03:05:25.909
132, 34645.98, 9217.32, 187500.00, 187500.00, 187500.00, 187500.00, 187500.00, 187500.00, 0.000, 0.000, 0.000, 03:05:25.909
133, 34630.52, 9211.47, 187500.00, 187500.00, 187500.00, 187500.00, 187500.00, 187500.00, 0.000, 0.000, 0.000, 03:05:25.909
134, 34613.66, 9207.44, 187500.00, 187500.00, 187500.00, 187500.00, 187500.00, 187500.00, 0.000, 0.000, 0.000, 03:05:25.910
135, 34629.47, 9224.81, 187500.00, 187500.00, 187500.00, 187500.00, 187500.00, 187500.00, 0.000, 0.000, 0.000, 03:05:25.910
136, 34650.32, 9251.43, 187500.00, 187500.00, 187500.00, 187500.00, 187500.00, 187500.00, 0.194, 0.524, -0.866, 03:05:25.910
137, 34647.28, 9226.78, 187500.00, 187500.00, 187500.00, 187500.00, 187500.00, 187500.00, 0.000, 0.000, 0.000, 03:05:25.910
138, 34616.95, 9199.35, 187500.00, 187500.00, 187500.00, 187500.00, 187500.00, 187500.00, 0.000, 0.000, 0.000, 03:05:25.910
139, 34626.70, 9204.58, 187500.00, 187500.00, 187500.00, 187500.00, 187500.00, 187500.00, 0.000, 0.000, 0.000, 03:05:25.910
140, 34639.82, 9220.16, 187500.00, 187500.00, 187500.00, 187500.00, 187500.00, 187500.00, 0.000, 0.000, 0.000, 03:05:25.910
141, 34630.50, 9236.34, 187500.00, 187500.00, 187500.00, 187500.00, 187500.00, 187500.00, 0.000, 0.000, 0.000, 03:05:25.910
142, 34600.10, 9200.49, 187500.00, 187500.00, 187500.00, 187500.00, 187500.00, 187500.00, 0.000, 0.000, 0.000, 03:05:25.911
143, 34621.15, 9212.18, 187500.00, 187500.00, 187500.00, 187500.00, 187500.00, 187500.00, 0.000, 0.000, 0.000, 03:05:25.911
144, 34639.52, 9238.24, 187500.00, 187500.00, 187500.00, 187500.00, 187500.00, 187500.00, 0.000, 0.000, 0.000, 03:05:25.911
145, 34643.32, 9238.78, 187500.00, 187500.00, 187500.00, 187500.00, 187500.00, 187500.00, 0.190, 0.520, -0.866, 03:05:25.911
146, 34616.55, 9203.49, 187500.00, 187500.00, 187500.00, 187500.00, 187500.00, 187500.00, 0.000, 0.000, 0.000, 03:05:25.911
147, 34612.17, 9197.30, 187500.00, 187500.00, 187500.00, 187500.00, 187500.00, 187500.00, 0.000, 0.000, 0.000, 03:05:25.911
148, 34641.78, 9219.49, 187500.00, 187500.00, 187500.00, 187500.00, 187500.00, 187500.00, 0.000, 0.000, 0.000, 03:05:25.911
149, 34638.92, 9224.99, 187500.00, 187500.00, 187500.00, 187500.00, 187500.00, 187500.00, 0.000, 0.000, 0.000, 03:05:25.912
150, 34616.41, 9198.48, 187500.00, 187500.00, 187500.00, 187500.00, 187500.00, 187500.00, 0.000, 0.000, 0.000, 03:05:25.912
151, 34612.32, 9188.51, 187500.00, 187500.00, 187500.00, 187500.00, 187500.00, 187500.00, 0.000, 0.000, 0.000, 03:05:25.912
152, 34635.73, 9227.07, 187500.00, 187500.00, 187500.00, 187500.00, 187500.00, 187500.00, 0.000, 0.000, 0.000, 03:05:25.912
153, 34630.61, 9233.73, 187500.00, 187500.00, 187500.00, 187500.00, 187500.00, 187500.00, 0.000, 0.000, 0.000, 03:05:25.912
154, 34620.86, 9221.06, 187500.00, 187500.00, 187500.00, 187500.00, 187500.00, 187500.00, 0.000, 0.000, 0.000, 03:05:25.912
155, 34616.73, 9206.35, 187500.00, 187500.00, 187500.00, 187500.00, 187500.00, 187500.00, 0.198, 0.512, -0.868, 03:05:25.912
156, 34626.34, 9213.72, 187500.00, 187500.00, 187500.00, 187500.00, 187500.00, 187500.00, 0.000, 0.000, 0.000, 03:05:25.912
157, 34647.48, 9221.50, 187500.00, 187500.00, 187500.00, 187500.00, 187500.00, 187500.00, 0.000, 0.000, 0.000, 03:05:25.913
158, 34636.66, 9214.42, 187500.00, 187500.00, 187500.00, 187500.00, 187500.00, 187500.00, 0.000, 0.000, 0.000, 03:05:25.913
159, 34613.44, 9199.87, 187500.00, 187500.00, 187500.00, 187500.00, 187500.00, 187500.00, 0.000, 0.000, 0.000, 03:05:25.913
160, 34641.58, 9224.92, 187500.00, 187500.00, 187500.00, 187500.00, 187500.00, 187500.00, 0.000, 0.000, 0.000, 03:05:25.913
161, 34655.62, 9225.66, 187500.00, 187500.00, 187500.00, 187500.00, 187500.00, 187500.00, 0.000, 0.000, 0.000, 03:05:25.913
162, 34647.10, 9220.38, 187500.00, 187500.00, 187500.00, 187500.00, 187500.00, 187500.00, 0.000, 0.000, 0.000, 03:05:25.913
163, 34620.35, 9198.41, 187500.00, 187500.00, 187500.00, 187500.00, 187500.00, 187500.00, 0.000, 0.000, 0.000, 03:05:25.913
164, 34641.02, 9205.19, 187500.00, 187500.00, 187500.00, 187500.00, 187500.00, 187500.00, 0.000, 0.000, 0.000, 03:05:25.914
165, 34668.07, 9257.56, 187500.00, 187500.00, 187500.00, 187500.00, 187500.00, 187500.00, 0.200, 0.520, -0.872, 03:05:25.914
166, 34649.38, 9230.69, 187500.00, 187500.00, 187500.00, 187500.00, 187500.00, 187500.00, 0.000, 0.000, 0.000, 03:05:25.914
167, 34628.71, 9210.75, 187500.00, 187500.00, 187500.00, 187500.00, 187500.00, 187500.00, 0.000, 0.000, 0.000, 03:05:25.914
168, 34644.44, 9223.09, 187500.00, 187500.00, 187500.00, 187500.00, 187500.00, 187500.00, 0.000, 0.000, 0.000, 03:05:25.914
169, 34676.74, 9253.64, 187500.00, 187500.00, 187500.00, 187500.00, 187500.00, 187500.00, 0.000, 0.000, 0.000, 03:05:25.914
170, 34673.43, 9250.67, 187500.00, 187500.00, 187500.00, 187500.00, 187500.00, 187500.00, 0.000, 0.000, 0.000, 03:05:25.914
171, 34649.92, 9229.06, 187500.00, 187500.00, 187500.00, 187500.00, 187500.00, 187500.00, 0.000, 0.000, 0.000, 03:05:25.914
172, 34631.16, 9211.69, 187500.00, 187500.00, 187500.00, 187500.00, 187500.00, 187500.00, 0.000, 0.000, 0.000, 03:05:25.914
173, 34654.48, 9238.13, 187500.00, 187500.00, 187500.00, 187500.00, 187500.00, 187500.00, 0.000, 0.000, 0.000, 03:05:25.915
174, 34653.56, 9247.14, 187500.00, 187500.00, 187500.00, 187500.00, 187500.00, 187500.00, 0.000, 0.000, 0.000, 03:05:25.915
175, 34639.28, 9230.33, 187500.00, 187500.00, 187500.00, 187500.00, 187500.00, 187500.00, 0.198, 0.524, -0.874, 03:05:25.915
176, 34634.83, 9210.10, 187500.00, 187500.00, 187500.00, 187500.00, 187500.00, 187500.00, 0.000, 0.000, 0.000, 03:05:25.915
177, 34658.30, 9235.11, 187500.00, 187500.00, 187500.00, 187500.00, 187500.00, 187500.00, 0.000, 0.000, 0.000, 03:05:25.915
178, 34664.18, 9241.71, 187500.00, 187500.00, 187500.00, 187500.00, 187500.00, 187500.00, 0.000, 0.000, 0.000, 03:05:25.915
179, 34640.87, 9217.21, 187500.00, 187500.00, 187500.00, 187500.00, 187500.00, 187500.00, 0.000, 0.000, 0.000, 03:05:25.915
180, 34614.94, 9200.85, 187500.00, 187500.00, 187500.00, 187500.00, 187500.00, 187500.00, 0.000, 0.000, 0.000, 03:05:25.916
181, 34645.94, 9232.81, 187500.00, 187500.00, 187500.00, 187500.00, 187500.00, 187500.00, 0.000, 0.000, 0.000, 03:05:25.916
182, 34665.61, 9249.73, 187500.00, 187500.00, 187500.00, 187500.00, 187500.00, 187500.00, 0.000, 0.000, 0.000, 03:05:25.916
183, 34660.07, 9257.85, 187500.00, 187500.00, 187500.00, 187500.00, 187500.00, 187500.00, 0.000, 0.000, 0.000, 03:05:25.916
184, 34630.07, 9217.52, 187500.00, 187500.00, 187500.00, 187500.00, 187500.00, 187500.00, 0.000, 0.000, 0.000, 03:05:25.916
185, 34634.21, 9229.33, 187500.00, 187500.00, 187500.00, 187500.00, 187500.00, 187500.00, 0.192, 0.524, -0.872, 03:05:25.916
186, 34655.13, 9228.79, 187500.00, 187500.00, 187500.00, 187500.00, 187500.00, 187500.00, 0.000, 0.000, 0.000, 03:05:25.916
187, 34651.93, 9248.53, 187500.00, 187500.00, 187500.00, 187500.00, 187500.00, 187500.00, 0.000, 0.000, 0.000, 03:05:25.916
188, 34634.38, 9230.20, 187500.00, 187500.00, 187500.00, 187500.00, 187500.00, 187500.00, 0.000, 0.000, 0.000, 03:05:25.917
189, 34642.14, 9232.34, 187500.00, 187500.00, 187500.00, 187500.00, 187500.00, 187500.00, 0.000, 0.000, 0.000, 03:05:25.917
190, 34663.02, 9247.09, 187500.00, 187500.00, 187500.00, 187500.00, 187500.00, 187500.00, 0.000, 0.000, 0.000, 03:05:25.917
191, 34638.45, 9246.60, 187500.00, 187500.00, 187500.00, 187500.00, 187500.00, 187500.00, 0.000, 0.000, 0.000, 03:05:25.917
192, 34617.40, 9225.19, 187500.00, 187500.00, 187500.00, 187500.00, 187500.00, 187500.00, 0.000, 0.000, 0.000, 03:05:25.917
193, 34623.10, 9230.11, 187500.00, 187500.00, 187500.00, 187500.00, 187500.00, 187500.00, 0.000, 0.000, 0.000, 03:05:25.917
194, 34658.46, 9256.62, 187500.00, 187500.00, 187500.00, 187500.00, 187500.00, 187500.00, 0.000, 0.000, 0.000, 03:05:25.917
195, 34646.95, 9252.28, 187500.00, 187500.00, 187500.00, 187500.00, 187500.00, 187500.00, 0.190, 0.522, -0.872, 03:05:25.917
196, 34634.32, 9236.08, 187500.00, 187500.00, 187500.00, 187500.00, 187500.00, 187500.00, 0.000, 0.000, 0.000, 03:05:25.917
197, 34625.64, 9226.71, 187500.00, 187500.00, 187500.00, 187500.00, 187500.00, 187500.00, 0.000, 0.000, 0.000, 03:05:25.917
198, 34659.24, 9250.11, 187500.00, 187500.00, 187500.00, 187500.00, 187500.00, 187500.00, 0.000, 0.000, 0.000, 03:05:25.918
199, 34662.04, 9246.96, 187500.00, 187500.00, 187500.00, 187500.00, 187500.00, 187500.00, 0.000, 0.000, 0.000, 03:05:25.918
200, 34633.42, 9234.73, 187500.00, 187500.00, 187500.00, 187500.00, 187500.00, 187500.00, 0.000, 0.000, 0.000, 03:05:25.918
201, 34618.92, 9223.33, 187500.00, 187500.00, 187500.00, 187500.00, 187500.00, 187500.00, 0.000, 0.000, 0.000, 03:05:25.918
202, 34646.52, 9234.65, 187500.00, 187500.00, 187500.00, 187500.00, 187500.00, 187500.00, 0.000, 0.000, 0.000, 03:05:25.918
203, 34652.64, 9239.76, 187500.00, 187500.00, 187500.00, 187500.00, 187500.00, 187500.00, 0.000, 0.000, 0.000, 03:05:25.918
204, 34635.79, 9229.91, 187500.00, 187500.00, 187500.00, 187500.00, 187500.00, 187500.00, 0.192, 0.526, -0.872, 03:05:25.918
205, 34613.46, 9222.31, 187500.00, 187500.00, 187500.00, 187500.00, 187500.00, 187500.00, 0.000, 0.000, 0.000, 03:05:25.918
206, 34639.91, 9240.08, 187500.00, 187500.00, 187500.00, 187500.00, 187500.00, 187500.00, 0.000, 0.000, 0.000, 03:05:25.918
207, 34657.43, 9241.73, 187500.00, 187500.00, 187500.00, 187500.00, 187500.00, 187500.00, 0.000, 0.000, 0.000, 03:05:25.919
208, 34632.95, 9243.63, 187500.00, 187500.00, 187500.00, 187500.00, 187500.00, 187500.00, 0.000, 0.000, 0.000, 03:05:25.919
209, 34618.80, 9227.16, 187500.00, 187500.00, 187500.00, 187500.00, 187500.00, 187500.00, 0.000, 0.000, 0.000, 03:05:25.919
210, 34634.90, 9234.47, 187500.00, 187500.00, 187500.00, 187500.00, 187500.00, 187500.00, 0.000, 0.000, 0.000, 03:05:25.919
211, 34654.59, 9247.05, 187500.00, 187500.00, 187500.00, 187500.00, 187500.00, 187500.00, 0.000, 0.000, 0.000, 03:05:25.919
212, 34642.14, 9251.41, 187500.00, 187500.00, 187500.00, 187500.00, 187500.00, 187500.00, 0.000, 0.000, 0.000, 03:05:25.919
213, 34603.96, 9223.85, 187500.00, 187500.00, 187500.00, 187500.00, 187500.00, 187500.00, 0.000, 0.000, 0.000, 03:05:25.919
214, 34612.59, 9226.98, 187500.00, 187500.00, 187500.00, 187500.00, 187500.00, 187500.00, 0.190, 0.524, -0.874, 03:05:25.919
215, 34638.45, 9248.68, 187500.00, 187500.00, 187500.00, 187500.00, 187500.00, 187500.00, 0.000, 0.000, 0.000, 03:05:25.919
216, 34642.83, 9236.17, 187500.00, 187500.00, 187500.00, 187500.00, 187500.00, 187500.00, 0.000, 0.000, 0.000, 03:05:25.920
217, 34631.05, 9220.50, 187500.00, 187500.00, 187500.00, 187500.00, 187500.00, 187500.00, 0.000, 0.000, 0.000, 03:05:25.920
218, 34629.18, 9242.69, 187500.00, 187500.00, 187500.00, 187500.00, 187500.00, 187500.00, 0.000, 0.000, 0.000, 03:05:25.920
219, 34654.30, 9252.12, 187500.00, 187500.00, 187500.00, 187500.00, 187500.00, 187500.00, 0.000, 0.000, 0.000, 03:05:25.920
220, 34642.50, 9231.25, 187500.00, 187500.00, 187500.00, 187500.00, 187500.00, 187500.00, 0.000, 0.000, 0.000, 03:05:25.920
221, 34631.19, 9240.86, 187500.00, 187500.00, 187500.00, 187500.00, 187500.00, 187500.00, 0.000, 0.000, 0.000, 03:05:25.920
222, 34618.65, 9233.55, 187500.00, 187500.00, 187500.00, 187500.00, 187500.00, 187500.00, 0.000, 0.000, 0.000, 03:05:25.920
223, 34646.72, 9246.96, 187500.00, 187500.00, 187500.00, 187500.00, 187500.00, 187500.00, 0.000, 0.000, 0.000, 03:05:25.920
224, 34653.16, 9249.20, 187500.00, 187500.00, 187500.00, 187500.00, 187500.00, 187500.00, 0.196, 0.526, -0.874, 03:05:25.920
225, 34631.77, 9231.52, 187500.00, 187500.00, 187500.00, 187500.00, 187500.00, 187500.00, 0.000, 0.000, 0.000, 03:05:26.387
226, 34619.97, 9213.86, 187500.00, 187500.00, 187500.00, 187500.00, 187500.00, 187500.00, 0.000, 0.000, 0.000, 03:05:26.387
227, 34652.27, 9214.75, 187500.00, 187500.00, 187500.00, 187500.00, 187500.00, 187500.00, 0.000, 0.000, 0.000, 03:05:26.387
228, 34654.39, 9224.77, 187500.00, 187500.00, 187500.00, 187500.00, 187500.00, 187500.00, 0.000, 0.000, 0.000, 03:05:26.387
229, 34631.61, 9222.22, 187500.00, 187500.00, 187500.00, 187500.00, 187500.00, 187500.00, 0.000, 0.000, 0.000, 03:05:26.387
230, 34624.04, 9240.46, 187500.00, 187500.00, 187500.00, 187500.00, 187500.00, 187500.00, 0.000, 0.000, 0.000, 03:05:26.387
231, 34648.51, 9265.45, 187500.00, 187500.00, 187500.00, 187500.00, 187500.00, 187500.00, 0.000, 0.000, 0.000, 03:05:26.387
232, 34656.33, 9261.22, 187500.00, 187500.00, 187500.00, 187500.00, 187500.00, 187500.00, 0.000, 0.000, 0.000, 03:05:26.387
233, 34635.43, 9235.45, 187500.00, 187500.00, 187500.00, 187500.00, 187500.00, 187500.00, 0.000, 0.000, 0.000, 03:05:26.387
234, 34618.63, 9224.86, 187500.00, 187500.00, 187500.00, 187500.00, 187500.00, 187500.00, 0.192, 0.524, -0.870, 03:05:26.388
235, 34645.09, 9243.63, 187500.00, 187500.00, 187500.00, 187500.00, 187500.00, 187500.00, 0.000, 0.000, 0.000, 03:05:26.388
236, 34669.01, 9263.21, 187500.00, 187500.00, 187500.00, 187500.00, 187500.00, 187500.00, 0.000, 0.000, 0.000, 03:05:26.388
237, 34653.72, 9240.57, 187500.00, 187500.00, 187500.00, 187500.00, 187500.00, 187500.00, 0.000, 0.000, 0.000, 03:05:26.388
238, 34628.06, 9228.28, 187500.00, 187500.00, 187500.00, 187500.00, 187500.00, 187500.00, 0.000, 0.000, 0.000, 03:05:26.388
239, 34632.89, 9237.93, 187500.00, 187500.00, 187500.00, 187500.00, 187500.00, 187500.00, 0.000, 0.000, 0.000, 03:05:26.388
240, 34652.89, 9256.13, 187500.00, 187500.00, 187500.00, 187500.00, 187500.00, 187500.00, 0.000, 0.000, 0.000, 03:05:26.388
241, 34649.94, 9254.38, 187500.00, 187500.00, 187500.00, 187500.00, 187500.00, 187500.00, 0.000, 0.000, 0.000, 03:05:26.388
242, 34621.71, 9237.51, 187500.00, 187500.00, 187500.00, 187500.00, 187500.00, 187500.00, 0.000, 0.000, 0.000, 03:05:26.388
243, 34632.48, 9233.13, 187500.00, 187500.00, 187500.00, 187500.00, 187500.00, 187500.00, 0.000, 0.000, 0.000, 03:05:26.389
244, 34649.90, 9246.80, 187500.00, 187500.00, 187500.00, 187500.00, 187500.00, 187500.00, 0.186, 0.524, -0.868, 03:05:26.389
245, 34638.23, 9222.20, 187500.00, 187500.00, 187500.00, 187500.00, 187500.00, 187500.00, 0.000, 0.000, 0.000, 03:05:26.389
246, 34618.85, 9215.67, 187500.00, 187500.00, 187500.00, 187500.00, 187500.00, 187500.00, 0.000, 0.000, 0.000, 03:05:26.389
247, 34614.09, 9204.27, 187500.00, 187500.00, 187500.00, 187500.00, 187500.00, 187500.00, 0.000, 0.000, 0.000, 03:05:26.389
248, 34634.79, 9252.44, 187500.00, 187500.00, 187500.00, 187500.00, 187500.00, 187500.00, 0.000, 0.000, 0.000, 03:05:26.389
249, 34642.32, 9240.10, 187500.00, 187500.00, 187500.00, 187500.00, 187500.00, 187500.00, 0.000, 0.000, 0.000, 03:05:26.389
250, 34638.63, 9224.72, 187500.00, 187500.00, 187500.00, 187500.00, 187500.00, 187500.00, 0.000, 0.000, 0.000, 03:05:26.389
251, 34610.22, 9215.31, 187500.00, 187500.00, 187500.00, 187500.00, 187500.00, 187500.00, 0.000, 0.000, 0.000, 03:05:26.390
252, 34630.00, 9233.68, 187500.00, 187500.00, 187500.00, 187500.00, 187500.00, 187500.00, 0.000, 0.000, 0.000, 03:05:26.390
253, 34643.41, 9222.64, 187500.00, 187500.00, 187500.00, 187500.00, 187500.00, 187500.00, 0.000, 0.000, 0.000, 03:05:26.390
254, 34640.78, 9236.92, 187500.00, 187500.00, 187500.00, 187500.00, 187500.00, 187500.00, 0.188, 0.530, -0.874, 03:05:26.390
255, 34609.95, 9209.66, 187500.00, 187500.00, 187500.00, 187500.00, 187500.00, 187500.00, 0.000, 0.000, 0.000, 03:05:26.390
0, 34621.18, 9234.49, 187500.00, 187500.00, 187500.00, 187500.00, 187500.00, 187500.00, 0.000, 0.000, 0.000, 03:05:26.390
1, 34642.59, 9256.84, 187500.00, 187500.00, 187500.00, 187500.00, 187500.00, 187500.00, 0.000, 0.000, 0.000, 03:05:26.390
2, 34637.96, 9246.49, 187500.00, 187500.00, 187500.00, 187500.00, 187500.00, 187500.00, 0.000, 0.000, 0.000, 03:05:26.390
3, 34616.01, 9222.75, 187500.00, 187500.00, 187500.00, 187500.00, 187500.00, 187500.00, 0.000, 0.000, 0.000, 03:05:26.390
4, 34635.99, 9236.61, 187500.00, 187500.00, 187500.00, 187500.00, 187500.00, 187500.00, 0.000, 0.000, 0.000, 03:05:26.391
5, 34658.19, 9236.05, 187500.00, 187500.00, 187500.00, 187500.00, 187500.00, 187500.00, 0.000, 0.000, 0.000, 03:05:26.391
6, 34645.94, 9223.96, 187500.00, 187500.00, 187500.00, 187500.00, 187500.00, 187500.00, 0.000, 0.000, 0.000, 03:05:26.391
7, 34611.96, 9232.23, 187500.00, 187500.00, 187500.00, 187500.00, 187500.00, 187500.00, 0.000, 0.000, 0.000, 03:05:26.391
8, 34615.43, 9234.56, 187500.00, 187500.00, 187500.00, 187500.00, 187500.00, 187500.00, 0.186, 0.530, -0.874, 03:05:26.391
9, 34647.28, 9242.87, 187500.00, 187500.00, 187500.00, 187500.00, 187500.00, 187500.00, 0.000, 0.000, 0.000, 03:05:26.391
10, 34639.97, 9241.69, 187500.00, 187500.00, 187500.00, 187500.00, 187500.00, 187500.00, 0.000, 0.000, 0.000, 03:05:26.391
11, 34630.20, 9228.50, 187500.00, 187500.00, 187500.00, 187500.00, 187500.00, 187500.00, 0.000, 0.000, 0.000, 03:05:26.391
12, 34623.75, 9222.08, 187500.00, 187500.00, 187500.00, 187500.00, 187500.00, 187500.00, 0.000, 0.000, 0.000, 03:05:26.392
13, 34646.72, 9245.49, 187500.00, 187500.00, 187500.00, 187500.00, 187500.00, 187500.00, 0.000, 0.000, 0.000, 03:05:26.392
14, 34644.60, 9229.35, 187500.00, 187500.00, 187500.00, 187500.00, 187500.00, 187500.00, 0.000, 0.000, 0.000, 03:05:26.392
15, 34617.00, 9209.32, 187500.00, 187500.00, 187500.00, 187500.00, 187500.00, 187500.00, 0.000, 0.000, 0.000, 03:05:26.392
16, 34600.75, 9206.12, 187500.00, 187500.00, 187500.00, 187500.00, 187500.00, 187500.00, 0.000, 0.000, 0.000, 03:05:26.392
17, 34634.23, 9228.45, 187500.00, 187500.00, 187500.00, 187500.00, 187500.00, 187500.00, 0.190, 0.530, -0.870, 03:05:26.392
18, 34635.28, 9221.73, 187500.00, 187500.00, 187500.00, 187500.00, 187500.00, 187500.00, 0.000, 0.000, 0.000, 03:05:26.393
19, 34632.21, 9214.98, 187500.00, 187500.00, 187500.00, 187500.00, 187500.00, 187500.00, 0.000, 0.000, 0.000, 03:05:26.393
20, 34617.66, 9224.41, 187500.00, 187500.00, 187500.00, 187500.00, 187500.00, 187500.00, 0.000, 0.000, 0.000, 03:05:26.393
21, 34641.00, 9237.84, 187500.00, 187500.00, 187500.00, 187500.00, 187500.00, 187500.00, 0.000, 0.000, 0.000, 03:05:26.393
22, 34652.71, 9249.91, 187500.00, 187500.00, 187500.00, 187500.00, 187500.00, 187500.00, 0.000, 0.000, 0.000, 03:05:26.393
23, 34631.10, 9232.99, 187500.00, 187500.00, 187500.00, 187500.00, 187500.00, 187500.00, 0.000, 0.000, 0.000, 03:05:26.393
24, 34598.00, 9193.94, 187500.00, 187500.00, 187500.00, 187500.00, 187500.00, 187500.00, 0.000, 0.000, 0.000, 03:05:26.393
25, 34628.71, 9229.44, 187500.00, 187500.00, 187500.00, 187500.00, 187500.00, 187500.00, 0.000, 0.000, 0.000, 03:05:26.393
26, 34648.67, 9243.65, 187500.00, 187500.00, 187500.00, 187500.00, 187500.00, 187500.00, 0.000, 0.000, 0.000, 03:05:26.393
27, 34639.14, 9233.17, 187500.00, 187500.00, 187500.00, 187500.00, 187500.00, 187500.00, 0.186, 0.524, -0.866, 03:05:26.393
28, 34611.77, 9210.82, 187500.00, 187500.00, 187500.00, 187500.00, 187500.00, 187500.00, 0.000, 0.000, 0.000, 03:05:26.394
29, 34600.52, 9206.44, 187500.00, 187500.00, 187500.00, 187500.00, 187500.00, 187500.00, 0.000, 0.000, 0.000, 03:05:26.394
30, 34632.82, 9231.76, 187500.00, 187500.00, 187500.00, 187500.00, 187500.00, 187500.00, 0.000, 0.000, 0.000, 03:05:26.394
31, 34639.32, 9232.63, 187500.00, 187500.00, 187500.00, 187500.00, 187500.00, 187500.00, 0.000, 0.000, 0.000, 03:05:26.394
32, 34614.92, 9196.09, 187500.00, 187500.00, 187500.00, 187500.00, 187500.00, 187500.00, 0.000, 0.000, 0.000, 03:05:26.394
33, 34610.29, 9214.22, 187500.00, 187500.00, 187500.00, 187500.00, 187500.00, 187500.00, 0.000, 0.000, 0.000, 03:05:26.394
34, 34641.96, 9243.97, 187500.00, 187500.00, 187500.00, 187500.00, 187500.00, 187500.00, 0.000, 0.000, 0.000, 03:05:26.394
35, 34641.43, 9244.03, 187500.00, 187500.00, 187500.00, 187500.00, 187500.00, 187500.00, 0.000, 0.000, 0.000, 03:05:26.394
36, 34632.29, 9233.59, 187500.00, 187500.00, 187500.00, 187500.00, 187500.00, 187500.00, 0.000, 0.000, 0.000, 03:05:26.394
37, 34613.64, 9211.06, 187500.00, 187500.00, 187500.00, 187500.00, 187500.00, 187500.00, 0.188, 0.526, -0.868, 03:05:26.395
38, 34639.57, 9231.40, 187500.00, 187500.00, 187500.00, 187500.00, 187500.00, 187500.00, 0.000, 0.000, 0.000, 03:05:26.395
39, 34634.16, 9236.54, 187500.00, 187500.00, 187500.00, 187500.00, 187500.00, 187500.00, 0.000, 0.000, 0.000, 03:05:26.395
40, 34616.66, 9226.78, 187500.00, 187500.00, 187500.00, 187500.00, 187500.00, 187500.00, 0.000, 0.000, 0.000, 03:05:26.395
41, 34602.04, 9201.74, 187500.00, 187500.00, 187500.00, 187500.00, 187500.00, 187500.00, 0.000, 0.000, 0.000, 03:05:26.395
42, 34637.96, 9219.96, 187500.00, 187500.00, 187500.00, 187500.00, 187500.00, 187500.00, 0.000, 0.000, 0.000, 03:05:26.395
43, 34643.30, 9225.30, 187500.00, 187500.00, 187500.00, 187500.00, 187500.00, 187500.00, 0.000, 0.000, 0.000, 03:05:26.395
44, 34640.64, 9217.03, 187500.00, 187500.00, 187500.00, 187500.00, 187500.00, 187500.00, 0.000, 0.000, 0.000, 03:05:26.395
45, 34615.32, 9199.89, 187500.00, 187500.00, 187500.00, 187500.00, 187500.00, 187500.00, 0.000, 0.000, 0.000, 03:05:26.395
46, 34641.36, 9225.41, 187500.00, 187500.00, 187500.00, 187500.00, 187500.00, 187500.00, 0.000, 0.000, 0.000, 03:05:26.396
47, 34658.66, 9254.36, 187500.00, 187500.00, 187500.00, 187500.00, 187500.00, 187500.00, 0.192, 0.526, -0.868, 03:05:26.396
48, 34638.45, 9227.16, 187500.00, 187500.00, 187500.00, 187500.00, 187500.00, 187500.00, 0.000, 0.000, 0.000, 03:05:26.396
49, 34599.18, 9183.79, 187500.00, 187500.00, 187500.00, 187500.00, 187500.00, 187500.00, 0.000, 0.000, 0.000, 03:05:26.396
50, 34621.71, 9196.87, 187500.00, 187500.00, 187500.00, 187500.00, 187500.00, 187500.00, 0.000, 0.000, 0.000, 03:05:26.396
51, 34657.79, 9249.29, 187500.00, 187500.00, 187500.00, 187500.00, 187500.00, 187500.00, 0.000, 0.000, 0.000, 03:05:26.396
52, 34653.16, 9254.52, 187500.00, 187500.00, 187500.00, 187500.00, 187500.00, 187500.00, 0.000, 0.000, 0.000, 03:05:26.396
53, 34623.66, 9220.83, 187500.00, 187500.00, 187500.00, 187500.00, 187500.00, 187500.00, 0.000, 0.000, 0.000, 03:05:26.396
54, 34622.88, 9220.41, 187500.00, 187500.00, 187500.00, 187500.00, 187500.00, 187500.00, 0.000, 0.000, 0.000, 03:05:26.397
55, 34646.45, 9247.54, 187500.00, 187500.00, 187500.00, 187500.00, 187500.00, 187500.00, 0.000, 0.000, 0.000, 03:05:26.397
56, 34643.68, 9240.99, 187500.00, 187500.00, 187500.00, 187500.00, 187500.00, 187500.00, 0.000, 0.000, 0.000, 03:05:26.397
57, 34619.52, 9215.76, 187500.00, 187500.00, 187500.00, 187500.00, 187500.00, 187500.00, 0.194, 0.530, -0.866, 03:05:26.397
58, 34626.67, 9203.67, 187500.00, 187500.00, 187500.00, 187500.00, 187500.00, 187500.00, 0.000, 0.000, 0.000, 03:05:26.397
59, 34631.70, 9219.13, 187500.00, 187500.00, 187500.00, 187500.00, 187500.00, 187500.00, 0.000, 0.000, 0.000, 03:05:26.397
60, 34629.89, 9234.27, 187500.00, 187500.00, 187500.00, 187500.00, 187500.00, 187500.00, 0.000, 0.000, 0.000, 03:05:26.397
61, 34619.48, 9213.86, 187500.00, 187500.00, 187500.00, 187500.00, 187500.00, 187500.00, 0.000, 0.000, 0.000, 03:05:26.397
62, 34610.69, 9174.85, 187500.00, 187500.00, 187500.00, 187500.00, 187500.00, 187500.00, 0.000, 0.000, 0.000, 03:05:26.397
63, 34643.08, 9231.34, 187500.00, 187500.00, 187500.00, 187500.00, 187500.00, 187500.00, 0.000, 0.000, 0.000, 03:05:26.397
64, 34636.69, 9229.91, 187500.00, 187500.00, 187500.00, 187500.00, 187500.00, 187500.00, 0.000, 0.000, 0.000, 03:05:26.398
65, 34614.56, 9211.67, 187500.00, 187500.00, 187500.00, 187500.00, 187500.00, 187500.00, 0.000, 0.000, 0.000, 03:05:26.398
66, 34605.04, 9209.63, 187500.00, 187500.00, 187500.00, 187500.00, 187500.00, 187500.00, 0.000, 0.000, 0.000, 03:05:26.398
67, 34637.80, 9238.83, 187500.00, 187500.00, 187500.00, 187500.00, 187500.00, 187500.00, 0.196, 0.524, -0.860, 03:05:26.398
68, 34649.36, 9242.07, 187500.00, 187500.00, 187500.00, 187500.00, 187500.00, 187500.00, 0.000, 0.000, 0.000, 03:05:26.398
69, 34635.39, 9229.15, 187500.00, 187500.00, 187500.00, 187500.00, 187500.00, 187500.00, 0.000, 0.000, 0.000, 03:05:26.398
70, 34616.23, 9195.66, 187500.00, 187500.00, 187500.00, 187500.00, 187500.00, 187500.00, 0.000, 0.000, 0.000, 03:05:26.398
71, 34638.48, 9194.34, 187500.00, 187500.00, 187500.00, 187500.00, 187500.00, 187500.00, 0.000, 0.000, 0.000, 03:05:26.398
72, 34656.87, 9244.21, 187500.00, 187500.00, 187500.00, 187500.00, 187500.00, 187500.00, 0.000, 0.000, 0.000, 03:05:26.399
73, 34650.72, 9256.71, 187500.00, 187500.00, 187500.00, 187500.00, 187500.00, 187500.00, 0.000, 0.000, 0.000, 03:05:26.399
74, 34619.21, 9217.68, 187500.00, 187500.00, 187500.00, 187500.00, 187500.00, 187500.00, 0.000, 0.000, 0.000, 03:05:26.399
75, 34622.49, 9223.36, 187500.00, 187500.00, 187500.00, 187500.00, 187500.00, 187500.00, 0.000, 0.000, 0.000, 03:05:26.399
76, 34644.09, 9237.77, 187500.00, 187500.00, 187500.00, 187500.00, 187500.00, 187500.00, 0.188, 0.530, -0.864, 03:05:26.399
77, 34631.86, 9214.89, 187500.00, 187500.00, 187500.00, 187500.00, 187500.00, 187500.00, 0.000, 0.000, 0.000, 03:05:26.399
78, 34618.09, 9203.75, 187500.00, 187500.00, 187500.00, 187500.00, 187500.00, 187500.00, 0.000, 0.000, 0.000, 03:05:26.399
79, 34628.62, 9237.48, 187500.00, 187500.00, 187500.00, 187500.00, 187500.00, 187500.00, 0.000, 0.000, 0.000, 03:05:26.400
80, 34637.02, 9239.83, 187500.00, 187500.00, 187500.00, 187500.00, 187500.00, 187500.00, 0.000, 0.000, 0.000, 03:05:26.400
81, 34625.73, 9225.53, 187500.00, 187500.00, 187500.00, 187500.00, 187500.00, 187500.00, 0.000, 0.000, 0.000, 03:05:26.400
82, 34607.85, 9214.10, 187500.00, 187500.00, 187500.00, 187500.00, 187500.00, 187500.00, 0.000, 0.000, 0.000, 03:05:26.400
83, 34603.70, 9214.01, 187500.00, 187500.00, 187500.00, 187500.00, 187500.00, 187500.00, 0.000, 0.000, 0.000, 03:05:26.400
84, 34628.95, 9232.59, 187500.00, 187500.00, 187500.00, 187500.00, 187500.00, 187500.00, 0.000, 0.000, 0.000, 03:05:26.400
85, 34634.90, 9229.42, 187500.00, 187500.00, 187500.00, 187500.00, 187500.00, 187500.00, 0.000, 0.000, 0.000, 03:05:26.400
86, 34615.56, 9197.68, 187500.00, 187500.00, 187500.00, 187500.00, 187500.00, 187500.00, 0.192, 0.530, -0.868, 03:05:26.401
87, 34603.61, 9202.97, 187500.00, 187500.00, 187500.00, 187500.00, 187500.00, 187500.00, 0.000, 0.000, 0.000, 03:05:26.401
88, 34631.46, 9228.45, 187500.00, 187500.00, 187500.00, 187500.00, 187500.00, 187500.00, 0.000, 0.000, 0.000, 03:05:26.401
89, 34633.98, 9226.49, 187500.00, 187500.00, 187500.00, 187500.00, 187500.00, 187500.00, 0.000, 0.000, 0.000, 03:05:26.401
90, 34618.78, 9201.39, 187500.00, 187500.00, 187500.00, 187500.00, 187500.00, 187500.00, 0.000, 0.000, 0.000, 03:05:26.867
91, 34602.24, 9178.83, 187500.00, 187500.00, 187500.00, 187500.00, 187500.00, 187500.00, 0.000, 0.000, 0.000, 03:05:26.868
92, 34619.59, 9193.74, 187500.00, 187500.00, 187500.00, 187500.00, 187500.00, 187500.00, 0.000, 0.000, 0.000, 03:05:26.868
93, 34632.04, 9215.56, 187500.00, 187500.00, 187500.00, 187500.00, 187500.00, 187500.00, 0.000, 0.000, 0.000, 03:05:26.868
94, 34624.46, 9239.92, 187500.00, 187500.00, 187500.00, 187500.00, 187500.00, 187500.00, 0.000, 0.000, 0.000, 03:05:26.868
95, 34608.21, 9212.58, 187500.00, 187500.00, 187500.00, 187500.00, 187500.00, 187500.00, 0.000, 0.000, 0.000, 03:05:26.868
96, 34624.73, 9227.43, 187500.00, 187500.00, 187500.00, 187500.00, 187500.00, 187500.00, 0.192, 0.532, -0.876, 03:05:26.868
97, 34647.48, 9243.97, 187500.00, 187500.00, 187500.00, 187500.00, 187500.00, 187500.00, 0.000, 0.000, 0.000, 03:05:26.868
98, 34643.32, 9230.69, 187500.00, 187500.00, 187500.00, 187500.00, 187500.00, 187500.00, 0.000, 0.000, 0.000, 03:05:26.868
99, 34621.84, 9208.40, 187500.00, 187500.00, 187500.00, 187500.00, 187500.00, 187500.00, 0.000, 0.000, 0.000, 03:05:26.868
100, 34633.87, 9220.99, 187500.00, 187500.00, 187500.00, 187500.00, 187500.00, 187500.00, 0.000, 0.000, 0.000, 03:05:26.869
101, 34653.09, 9244.06, 187500.00, 187500.00, 187500.00, 187500.00, 187500.00, 187500.00, 0.000, 0.000, 0.000, 03:05:26.869
102, 34634.12, 9223.27, 187500.00, 187500.00, 187500.00, 187500.00, 187500.00, 187500.00, 0.000, 0.000, 0.000, 03:05:26.869
103, 34614.71, 9190.61, 187500.00, 187500.00, 187500.00, 187500.00, 187500.00, 187500.00, 0.000, 0.000, 0.000, 03:05:26.869
104, 34628.15, 9197.27, 187500.00, 187500.00, 187500.00, 187500.00, 187500.00, 187500.00, 0.000, 0.000, 0.000, 03:05:26.869
105, 34652.89, 9231.90, 187500.00, 187500.00, 187500.00, 187500.00, 187500.00, 187500.00, 0.000, 0.000, 0.000, 03:05:26.869
106, 34636.89, 9214.26, 187500.00, 187500.00, 187500.00, 187500.00, 187500.00, 187500.00, 0.192, 0.528, -0.874, 03:05:26.869
107, 34615.45, 9191.66, 187500.00, 187500.00, 187500.00, 187500.00, 187500.00, 187500.00, 0.000, 0.000, 0.000, 03:05:26.869
108, 34609.33, 9177.31, 187500.00, 187500.00, 187500.00, 187500.00, 187500.00, 187500.00, 0.000, 0.000, 0.000, 03:05:26.869
109, 34639.26, 9218.42, 187500.00, 187500.00, 187500.00, 187500.00, 187500.00, 187500.00, 0.000, 0.000, 0.000, 03:05:26.869
110, 34635.46, 9238.09, 187500.00, 187500.00, 187500.00, 187500.00, 187500.00, 187500.00, 0.000, 0.000, 0.000, 03:05:26.870
111, 34630.54, 9217.23, 187500.00, 187500.00, 187500.00, 187500.00, 187500.00, 187500.00, 0.000, 0.000, 0.000, 03:05:26.870
112, 34617.91, 9203.40, 187500.00, 187500.00, 187500.00, 187500.00, 187500.00, 187500.00, 0.000, 0.000, 0.000, 03:05:26.870
113, 34649.63, 9231.25, 187500.00, 187500.00, 187500.00, 187500.00, 187500.00, 187500.00, 0.000, 0.000, 0.000, 03:05:26.870
114, 34658.43, 9235.41, 187500.00, 187500.00, 187500.00, 187500.00, 187500.00, 187500.00, 0.000, 0.000, 0.000, 03:05:26.870
115, 34642.05, 9227.09, 187500.00, 187500.00, 187500.00, 187500.00, 187500.00, 187500.00, 0.000, 0.000, 0.000, 03:05:26.870
116, 34624.93, 9207.44, 187500.00, 187500.00, 187500.00, 187500.00, 187500.00, 187500.00, 0.194, 0.524, -0.872, 03:05:26.870
117, 34649.96, 9224.01, 187500.00, 187500.00, 187500.00, 187500.00, 187500.00, 187500.00, 0.000, 0.000, 0.000, 03:05:26.870
118, 34658.17, 9237.19, 187500.00, 187500.00, 187500.00, 187500.00, 187500.00, 187500.00, 0.000, 0.000, 0.000, 03:05:26.870
119, 34637.47, 9216.99, 187500.00, 187500.00, 187500.00, 187500.00, 187500.00, 187500.00, 0.000, 0.000, 0.000, 03:05:26.870
120, 34612.97, 9191.57, 187500.00, 187500.00, 187500.00, 187500.00, 187500.00, 187500.00, 0.000, 0.000, 0.000, 03:05:26.871
121, 34636.02, 9213.52, 187500.00, 187500.00, 187500.00, 187500.00, 187500.00, 187500.00, 0.000, 0.000, 0.000, 03:05:26.871
122, 34659.91, 9239.03, 187500.00, 187500.00, 187500.00, 187500.00, 187500.00, 187500.00, 0.000, 0.000, 0.000, 03:05:26.871
123, 34646.10, 9214.60, 187500.00, 187500.00, 187500.00, 187500.00, 187500.00, 187500.00, 0.000, 0.000, 0.000, 03:05:26.871
124, 34619.92, 9213.19, 187500.00, 187500.00, 187500.00, 187500.00, 187500.00, 187500.00, 0.000, 0.000, 0.000, 03:05:26.871
125, 34645.18, 9222.80, 187500.00, 187500.00, 187500.00, 187500.00, 187500.00, 187500.00, 0.000, 0.000, 0.000, 03:05:26.871
126, 34664.61, 9231.09, 187500.00, 187500.00, 187500.00, 187500.00, 187500.00, 187500.00, 0.194, 0.530, -0.872, 03:05:26.871
127, 34648.46, 9220.52, 187500.00, 187500.00, 187500.00, 187500.00, 187500.00, 187500.00, 0.000, 0.000, 0.000, 03:05:26.871
128, 34638.56, 9213.19, 187500.00, 187500.00, 187500.00, 187500.00, 187500.00, 187500.00, 0.000, 0.000, 0.000, 03:05:26.871
129, 34637.04, 9207.58, 187500.00, 187500.00, 187500.00, 187500.00, 187500.00, 187500.00, 0.000, 0.000, 0.000, 03:05:26.871
130, 34668.85, 9241.31, 187500.00, 187500.00, 187500.00, 187500.00, 187500.00, 187500.00, 0.000, 0.000, 0.000, 03:05:26.872
131, 34658.82, 9235.05, 187500.00, 187500.00, 187500.00, 187500.00, 187500.00, 187500.00, 0.000, 0.000, 0.000, 03:05:26.872
132, 34637.00, 9214.86, 187500.00, 187500.00, 187500.00, 187500.00, 187500.00, 187500.00, 0.000, 0.000, 0.000, 03:05:26.872
133, 34627.48, 9198.44, 187500.00, 187500.00, 187500.00, 187500.00, 187500.00, 187500.00, 0.000, 0.000, 0.000, 03:05:26.872
134, 34638.03, 9217.21, 187500.00, 187500.00, 187500.00, 187500.00, 187500.00, 187500.00, 0.000, 0.000, 0.000, 03:05:26.872
135, 34641.89, 9223.45, 187500.00, 187500.00, 187500.00, 187500.00, 187500.00, 187500.00, 0.000, 0.000, 0.000, 03:05:26.872
136, 34630.34, 9210.15, 187500.00, 187500.00, 187500.00, 187500.00, 187500.00, 187500.00, 0.200, 0.532, -0.870, 03:05:26.872
137, 34624.21, 9207.42, 187500.00, 187500.00, 187500.00, 187500.00, 187500.00, 187500.00, 0.000, 0.000, 0.000, 03:05:26.872
138, 34636.80, 9219.80, 187500.00, 187500.00, 187500.00, 187500.00, 187500.00, 187500.00, 0.000, 0.000, 0.000, 03:05:26.872
139, 34641.29, 9197.12, 187500.00, 187500.00, 187500.00, 187500.00, 187500.00, 187500.00, 0.000, 0.000, 0.000, 03:05:26.872
140, 34631.77, 9222.64, 187500.00, 187500.00, 187500.00, 187500.00, 187500.00, 187500.00, 0.000, 0.000, 0.000, 03:05:26.872
141, 34619.41, 9213.68, 187500.00, 187500.00, 187500.00, 187500.00, 187500.00, 187500.00, 0.000, 0.000, 0.000, 03:05:26.873
142, 34658.14, 9218.44, 187500.00, 187500.00, 187500.00, 187500.00, 187500.00, 187500.00, 0.000, 0.000, 0.000, 03:05:26.873
143, 34663.66, 9226.11, 187500.00, 187500.00, 187500.00, 187500.00, 187500.00, 187500.00, 0.000, 0.000, 0.000, 03:05:26.873
144, 34654.21, 9226.78, 187500.00, 187500.00, 187500.00, 187500.00, 187500.00, 187500.00, 0.000, 0.000, 0.000, 03:05:26.873
145, 34634.88, 9207.35, 187500.00, 187500.00, 187500.00, 187500.00, 187500.00, 187500.00, 0.196, 0.532, -0.872, 03:05:26.873
146, 34647.95, 9212.18, 187500.00, 187500.00, 187500.00, 187500.00, 187500.00, 187500.00, 0.000, 0.000, 0.000, 03:05:26.873
147, 34656.33, 9230.40, 187500.00, 187500.00, 187500.00, 187500.00, 187500.00, 187500.00, 0.000, 0.000, 0.000, 03:05:26.873
148, 34637.04, 9224.81, 187500.00, 187500.00, 187500.00, 187500.00, 187500.00, 187500.00, 0.000, 0.000, 0.000, 03:05:26.873
149, 34619.36, 9200.83, 187500.00, 187500.00, 187500.00, 187500.00, 187500.00, 187500.00, 0.000, 0.000, 0.000, 03:05:26.873
150, 34638.07, 9213.57, 187500.00, 187500.00, 187500.00, 187500.00, 187500.00, 187500.00, 0.000, 0.000, 0.000, 03:05:26.873
151, 34667.31, 9225.37, 187500.00, 187500.00, 187500.00, 187500.00, 187500.00, 187500.00, 0.000, 0.000, 0.000, 03:05:26.874
152, 34660.58, 9219.67, 187500.00, 187500.00, 187500.00, 187500.00, 187500.00, 187500.00, 0.000, 0.000, 0.000, 03:05:26.874
153, 34632.06, 9206.24, 187500.00, 187500.00, 187500.00, 187500.00, 187500.00, 187500.00, 0.000, 0.000, 0.000, 03:05:26.874
154, 34631.99, 9178.72, 187500.00, 187500.00, 187500.00, 187500.00, 187500.00, 187500.00, 0.000, 0.000, 0.000, 03:05:26.874
155, 34651.82, 9236.25, 187500.00, 187500.00, 187500.00, 187500.00, 187500.00, 187500.00, 0.194, 0.530, -0.874, 03:05:26.874
156, 34649.09, 9230.00, 187500.00, 187500.00, 187500.00, 187500.00, 187500.00, 187500.00, 0.000, 0.000, 0.000, 03:05:26.874
157, 34645.07, 9220.74, 187500.00, 187500.00, 187500.00, 187500.00, 187500.00, 187500.00, 0.000, 0.000, 0.000, 03:05:26.874
158, 34642.77, 9219.80, 187500.00, 187500.00, 187500.00, 187500.00, 187500.00, 187500.00, 0.000, 0.000, 0.000, 03:05:26.874
159, 34681.03, 9237.17, 187500.00, 187500.00, 187500.00, 187500.00, 187500.00, 187500.00, 0.000, 0.000, 0.000, 03:05:26.874
160, 34672.32, 9260.73, 187500.00, 187500.00, 187500.00, 187500.00, 187500.00, 187500.00, 0.000, 0.000, 0.000, 03:05:26.874
161, 34654.66, 9242.36, 187500.00, 187500.00, 187500.00, 187500.00, 187500.00, 187500.00, 0.000, 0.000, 0.000, 03:05:26.875
162, 34639.79, 9217.21, 187500.00, 187500.00, 187500.00, 187500.00, 187500.00, 187500.00, 0.000, 0.000, 0.000, 03:05:26.875
163, 34666.48, 9234.13, 187500.00, 187500.00, 187500.00, 187500.00, 187500.00, 187500.00, 0.000, 0.000, 0.000, 03:05:26.875
164, 34678.46, 9243.47, 187500.00, 187500.00, 187500.00, 187500.00, 187500.00, 187500.00, 0.000, 0.000, 0.000, 03:05:26.875
165, 34667.75, 9231.40, 187500.00, 187500.00, 187500.00, 187500.00, 187500.00, 187500.00, 0.192, 0.532, -0.870, 03:05:26.875
166, 34642.12, 9210.15, 187500.00, 187500.00, 187500.00, 187500.00, 187500.00, 187500.00, 0.000, 0.000, 0.000, 03:05:26.875
167, 34658.64, 9235.49, 187500.00, 187500.00, 187500.00, 187500.00, 187500.00, 187500.00, 0.000, 0.000, 0.000, 03:05:26.875
168, 34672.94, 9242.94, 187500.00, 187500.00, 187500.00, 187500.00, 187500.00, 187500.00, 0.000, 0.000, 0.000, 03:05:26.875
169, 34667.15, 9240.12, 187500.00, 187500.00, 187500.00, 187500.00, 187500.00, 187500.00, 0.000, 0.000, 0.000, 03:05:26.875
170, 34647.66, 9211.09, 187500.00, 187500.00, 187500.00, 187500.00, 187500.00, 187500.00, 0.000, 0.000, 0.000, 03:05:26.875
171, 34667.73, 9228.88, 187500.00, 187500.00, 187500.00, 187500.00, 187500.00, 187500.00, 0.000, 0.000, 0.000, 03:05:26.875
172, 34669.79, 9256.55, 187500.00, 187500.00, 187500.00, 187500.00, 187500.00, 187500.00, 0.000, 0.000, 0.000, 03:05:26.876
173, 34651.93, 9233.24, 187500.00, 187500.00, 187500.00, 187500.00, 187500.00, 187500.00, 0.000, 0.000, 0.000, 03:05:26.876
174, 34635.75, 9212.03, 187500.00, 187500.00, 187500.00, 187500.00, 187500.00, 187500.00, 0.000, 0.000, 0.000, 03:05:26.876
175, 34655.15, 9228.23, 187500.00, 187500.00, 187500.00, 187500.00, 187500.00, 187500.00, 0.192, 0.526, -0.866, 03:05:26.876
176, 34684.00, 9246.94, 187500.00, 187500.00, 187500.00, 187500.00, 187500.00, 187500.00, 0.000, 0.000, 0.000, 03:05:26.876
177, 34671.78, 9240.61, 187500.00, 187500.00, 187500.00, 187500.00, 187500.00, 187500.00, 0.000, 0.000, 0.000, 03:05:26.876
178, 34638.74, 9227.85, 187500.00, 187500.00, 187500.00, 187500.00, 187500.00, 187500.00, 0.000, 0.000, 0.000, 03:05:26.876
179, 34642.36, 9218.82, 187500.00, 187500.00, 187500.00, 187500.00, 187500.00, 187500.00, 0.000, 0.000, 0.000, 03:05:26.876
180, 34671.96, 9243.50, 187500.00, 187500.00, 187500.00, 187500.00, 187500.00, 187500.00, 0.000, 0.000, 0.000, 03:05:26.876
181, 34661.96, 9244.21, 187500.00, 187500.00, 187500.00, 187500.00, 187500.00, 187500.00, 0.000, 0.000, 0.000, 03:05:26.876
182, 34642.16, 9220.30, 187500.00, 187500.00, 187500.00, 187500.00, 187500.00, 187500.00, 0.000, 0.000, 0.000, 03:05:26.877
183, 34638.70, 9215.31, 187500.00, 187500.00, 187500.00, 187500.00, 187500.00, 187500.00, 0.000, 0.000, 0.000, 03:05:26.877
184, 34665.74, 9259.05, 187500.00, 187500.00, 187500.00, 187500.00, 187500.00, 187500.00, 0.000, 0.000, 0.000, 03:05:26.877
185, 34659.24, 9257.58, 187500.00, 187500.00, 187500.00, 187500.00, 187500.00, 187500.00, 0.194, 0.532, -0.860, 03:05:26.877
186, 34648.38, 9244.41, 187500.00, 187500.00, 187500.00, 187500.00, 187500.00, 187500.00, 0.000, 0.000, 0.000, 03:05:26.877
187, 34633.69, 9223.40, 187500.00, 187500.00, 187500.00, 187500.00, 187500.00, 187500.00, 0.000, 0.000, 0.000, 03:05:26.877
188, 34655.30, 9243.81, 187500.00, 187500.00, 187500.00, 187500.00, 187500.00, 187500.00, 0.000, 0.000, 0.000, 03:05:26.877
189, 34668.70, 9256.82, 187500.00, 187500.00, 187500.00, 187500.00, 187500.00, 187500.00, 0.000, 0.000, 0.000, 03:05:26.877
190, 34657.56, 9237.55, 187500.00, 187500.00, 187500.00, 187500.00, 187500.00, 187500.00, 0.000, 0.000, 0.000, 03:05:26.877
191, 34630.54, 9213.77, 187500.00, 187500.00, 187500.00, 187500.00, 187500.00, 187500.00, 0.000, 0.000, 0.000, 03:05:26.877
192, 34655.13, 9233.53, 187500.00, 187500.00, 187500.00, 187500.00, 187500.00, 187500.00, 0.000, 0.000, 0.000, 03:05:26.878
193, 34670.59, 9254.94, 187500.00, 187500.00, 187500.00, 187500.00, 187500.00, 187500.00, 0.000, 0.000, 0.000, 03:05:26.878
194, 34665.86, 9239.54, 187500.00, 187500.00, 187500.00, 187500.00, 187500.00, 187500.00, 0.000, 0.000, 0.000, 03:05:26.878
195, 34642.45, 9216.79, 187500.00, 187500.00, 187500.00, 187500.00, 187500.00, 187500.00, 0.190, 0.528, -0.866, 03:05:26.878
196, 34639.12, 9228.03, 187500.00, 187500.00, 187500.00, 187500.00, 187500.00, 187500.00, 0.000, 0.000, 0.000, 03:05:26.878
197, 34652.85, 9235.99, 187500.00, 187500.00, 187500.00, 187500.00, 187500.00, 187500.00, 0.000, 0.000, 0.000, 03:05:26.878
198, 34662.04, 9241.24, 187500.00, 187500.00, 187500.00, 187500.00, 187500.00, 187500.00, 0.000, 0.000, 0.000, 03:05:26.878
199, 34642.57, 9237.60, 187500.00, 187500.00, 187500.00, 187500.00, 187500.00, 187500.00, 0.000, 0.000, 0.000, 03:05:26.878
200, 34638.34, 9220.21, 187500.00, 187500.00, 187500.00, 187500.00, 187500.00, 187500.00, 0.000, 0.000, 0.000, 03:05:26.878
201, 34665.57, 9254.76, 187500.00, 187500.00, 187500.00, 187500.00, 187500.00, 187500.00, 0.000, 0.000, 0.000, 03:05:26.878
202, 34660.04, 9248.55, 187500.00, 187500.00, 187500.00, 187500.00, 187500.00, 187500.00, 0.000, 0.000, 0.000, 03:05:26.878
203, 34636.84, 9229.06, 187500.00, 187500.00, 187500.00, 187500.00, 187500.00, 187500.00, 0.000, 0.000, 0.000, 03:05:26.879
204, 34634.68, 9208.87, 187500.00, 187500.00, 187500.00, 187500.00, 187500.00, 187500.00, 0.188, 0.526, -0.868, 03:05:26.879
205, 34661.77, 9231.92, 187500.00, 187500.00, 187500.00, 187500.00, 187500.00, 187500.00, 0.000, 0.000, 0.000, 03:05:26.879
206, 34655.35, 9245.26, 187500.00, 187500.00, 187500.00, 187500.00, 187500.00, 187500.00, 0.000, 0.000, 0.000, 03:05:26.879
207, 34631.01, 9230.80, 187500.00, 187500.00, 187500.00, 187500.00, 187500.00, 187500.00, 0.000, 0.000, 0.000, 03:05:26.879
208, 34621.87, 9206.82, 187500.00, 187500.00, 187500.00, 187500.00, 187500.00, 187500.00, 0.000, 0.000, 0.000, 03:05:26.879
209, 34650.86, 9240.28, 187500.00, 187500.00, 187500.00, 187500.00, 187500.00, 187500.00, 0.000, 0.000, 0.000, 03:05:26.879
210, 34649.14, 9240.14, 187500.00, 187500.00, 187500.00, 187500.00, 187500.00, 187500.00, 0.000, 0.000, 0.000, 03:05:27.347
211, 34626.34, 9234.04, 187500.00, 187500.00, 187500.00, 187500.00, 187500.00, 187500.00, 0.000, 0.000, 0.000, 03:05:27.347
212, 34610.49, 9204.36, 187500.00, 187500.00, 187500.00, 187500.00, 187500.00, 187500.00, 0.000, 0.000, 0.000, 03:05:27.347
213, 34638.41, 9223.33, 187500.00, 187500.00, 187500.00, 187500.00, 187500.00, 187500.00, 0.000, 0.000, 0.000, 03:05:27.347
214, 34652.45, 9232.72, 187500.00, 187500.00, 187500.00, 187500.00, 187500.00, 187500.00, 0.192, 0.530, -0.860, 03:05:27.347
215, 34639.52, 9231.05, 187500.00, 187500.00, 187500.00, 187500.00, 187500.00, 187500.00, 0.000, 0.000, 0.000, 03:05:27.348
216, 34622.34, 9230.85, 187500.00, 187500.00, 187500.00, 187500.00, 187500.00, 187500.00, 0.000, 0.000, 0.000, 03:05:27.348
217, 34644.82, 9245.40, 187500.00, 187500.00, 187500.00, 187500.00, 187500.00, 187500.00, 0.000, 0.000, 0.000, 03:05:27.348
218, 34655.02, 9260.44, 187500.00, 187500.00, 187500.00, 187500.00, 187500.00, 187500.00, 0.000, 0.000, 0.000, 03:05:27.348
219, 34642.77, 9242.36, 187500.00, 187500.00, 187500.00, 187500.00, 187500.00, 187500.00, 0.000, 0.000, 0.000, 03:05:27.348
220, 34621.91, 9218.95, 187500.00, 187500.00, 187500.00, 187500.00, 187500.00, 187500.00, 0.000, 0.000, 0.000, 03:05:27.348
221, 34625.36, 9212.07, 187500.00, 187500.00, 187500.00, 187500.00, 187500.00, 187500.00, 0.000, 0.000, 0.000, 03:05:27.348
222, 34650.48, 9243.32, 187500.00, 187500.00, 187500.00, 187500.00, 187500.00, 187500.00, 0.000, 0.000, 0.000, 03:05:27.348
223, 34652.09, 9237.01, 187500.00, 187500.00, 187500.00, 187500.00, 187500.00, 187500.00, 0.000, 0.000, 0.000, 03:05:27.348
224, 34618.78, 9226.82, 187500.00, 187500.00, 187500.00, 187500.00, 187500.00, 187500.00, 0.200, 0.532, -0.864, 03:05:27.349
225, 34617.35, 9218.28, 187500.00, 187500.00, 187500.00, 187500.00, 187500.00, 187500.00, 0.000, 0.000, 0.000, 03:05:27.349
226, 34646.01, 9227.54, 187500.00, 187500.00, 187500.00, 187500.00, 187500.00, 187500.00, 0.000, 0.000, 0.000, 03:05:27.349
227, 34648.09, 9253.82, 187500.00, 187500.00, 187500.00, 187500.00, 187500.00, 187500.00, 0.000, 0.000, 0.000, 03:05:27.349
228, 34649.02, 9254.43, 187500.00, 187500.00, 187500.00, 187500.00, 187500.00, 187500.00, 0.000, 0.000, 0.000, 03:05:27.349
229, 34631.59, 9230.85, 187500.00, 187500.00, 187500.00, 187500.00, 187500.00, 187500.00, 0.000, 0.000, 0.000, 03:05:27.349
230, 34646.45, 9233.86, 187500.00, 187500.00, 187500.00, 187500.00, 187500.00, 187500.00, 0.000, 0.000, 0.000, 03:05:27.349
231, 34647.80, 9233.93, 187500.00, 187500.00, 187500.00, 187500.00, 187500.00, 187500.00, 0.000, 0.000, 0.000, 03:05:27.349
232, 34632.08, 9222.42, 187500.00, 187500.00, 187500.00, 187500.00, 187500.00, 187500.00, 0.000, 0.000, 0.000, 03:05:27.349
233, 34616.46, 9208.90, 187500.00, 187500.00, 187500.00, 187500.00, 187500.00, 187500.00, 0.000, 0.000, 0.000, 03:05:27.350
234, 34641.78, 9256.19, 187500.00, 187500.00, 187500.00, 187500.00, 187500.00, 187500.00, 0.192, 0.532, -0.866, 03:05:27.350
235, 34646.84, 9247.74, 187500.00, 187500.00, 187500.00, 187500.00, 187500.00, 187500.00, 0.000, 0.000, 0.000, 03:05:27.350
236, 34640.57, 9232.14, 187500.00, 187500.00, 187500.00, 187500.00, 187500.00, 187500.00, 0.000, 0.000, 0.000, 03:05:27.350
237, 34621.71, 9213.43, 187500.00, 187500.00, 187500.00, 187500.00, 187500.00, 187500.00, 0.000, 0.000, 0.000, 03:05:27.350
238, 34643.79, 9232.52, 187500.00, 187500.00, 187500.00, 187500.00, 187500.00, 187500.00, 0.000, 0.000, 0.000, 03:05:27.350
239, 34654.99, 9245.15, 187500.00, 187500.00, 187500.00, 187500.00, 187500.00, 187500.00, 0.000, 0.000, 0.000, 03:05:27.350
240, 34643.73, 9248.62, 187500.00, 187500.00, 187500.00, 187500.00, 187500.00, 187500.00, 0.000, 0.000, 0.000, 03:05:27.350
241, 34624.37, 9225.50, 187500.00, 187500.00, 187500.00, 187500.00, 187500.00, 187500.00, 0.000, 0.000, 0.000, 03:05:27.350
242, 34637.20, 9225.75, 187500.00, 187500.00, 187500.00, 187500.00, 187500.00, 187500.00, 0.000, 0.000, 0.000, 03:05:27.351
243, 34640.75, 9232.52, 187500.00, 187500.00, 187500.00, 187500.00, 187500.00, 187500.00, 0.000, 0.000, 0.000, 03:05:27.351
244, 34653.68, 9244.10, 187500.00, 187500.00, 187500.00, 187500.00, 187500.00, 187500.00, 0.186, 0.536, -0.866, 03:05:27.351
245, 34626.45, 9227.09, 187500.00, 187500.00, 187500.00, 187500.00, 187500.00, 187500.00, 0.000, 0.000, 0.000, 03:05:27.351
246, 34642.66, 9220.12, 187500.00, 187500.00, 187500.00, 187500.00, 187500.00, 187500.00, 0.000, 0.000, 0.000, 03:05:27.351
247, 34652.78, 9242.94, 187500.00, 187500.00, 187500.00, 187500.00, 187500.00, 187500.00, 0.000, 0.000, 0.000, 03:05:27.351
248, 34643.44, 9218.44, 187500.00, 187500.00, 187500.00, 187500.00, 187500.00, 187500.00, 0.000, 0.000, 0.000, 03:05:27.351
249, 34633.73, 9211.80, 187500.00, 187500.00, 187500.00, 187500.00, 187500.00, 187500.00, 0.000, 0.000, 0.000, 03:05:27.351
250, 34632.44, 9208.31, 187500.00, 187500.00, 187500.00, 187500.00, 187500.00, 187500.00, 0.000, 0.000, 0.000, 03:05:27.351
251, 34658.75, 9250.34, 187500.00, 187500.00, 187500.00, 187500.00, 187500.00, 187500.00, 0.000, 0.000, 0.000, 03:05:27.352
252, 34646.70, 9253.53, 187500.00, 187500.00, 187500.00, 187500.00, 187500.00, 187500.00, 0.000, 0.000, 0.000, 03:05:27.352
253, 34632.93, 9228.34, 187500.00, 187500.00, 187500.00, 187500.00, 187500.00, 187500.00, 0.000, 0.000, 0.000, 03:05:27.352
254, 34617.42, 9202.84, 187500.00, 187500.00, 187500.00, 187500.00, 187500.00, 187500.00, 0.190, 0.536, -0.866, 03:05:27.352
255, 34645.49, 9239.70, 187500.00, 187500.00, 187500.00, 187500.00, 187500.00, 187500.00, 0.000, 0.000, 0.000, 03:05:27.352
0, 34657.07, 9248.66, 187500.00, 187500.00, 187500.00, 187500.00, 187500.00, 187500.00, 0.000, 0.000, 0.000, 03:05:27.352
1, 34635.61, 9230.44, 187500.00, 187500.00, 187500.00, 187500.00, 187500.00, 187500.00, 0.000, 0.000, 0.000, 03:05:27.352
2, 34629.36, 9216.54, 187500.00, 187500.00, 187500.00, 187500.00, 187500.00, 187500.00, 0.000, 0.000, 0.000, 03:05:27.352
3, 34642.92, 9221.37, 187500.00, 187500.00, 187500.00, 187500.00, 187500.00, 187500.00, 0.000, 0.000, 0.000, 03:05:27.352
4, 34645.76, 9227.29, 187500.00, 187500.00, 187500.00, 187500.00, 187500.00, 187500.00, 0.000, 0.000, 0.000, 03:05:27.353
5, 34631.93, 9237.35, 187500.00, 187500.00, 187500.00, 187500.00, 187500.00, 187500.00, 0.000, 0.000, 0.000, 03:05:27.353
6, 34616.68, 9220.34, 187500.00, 187500.00, 187500.00, 187500.00, 187500.00, 187500.00, 0.000, 0.000, 0.000, 03:05:27.353
7, 34637.22, 9219.80, 187500.00, 187500.00, 187500.00, 187500.00, 187500.00, 187500.00, 0.000, 0.000, 0.000, 03:05:27.353
8, 34649.36, 9234.35, 187500.00, 187500.00, 187500.00, 187500.00, 187500.00, 187500.00, 0.192, 0.534, -0.868, 03:05:27.353
9, 34646.52, 9234.80, 187500.00, 187500.00, 187500.00, 187500.00, 187500.00, 187500.00, 0.000, 0.000, 0.000, 03:05:27.353
10, 34609.29, 9200.22, 187500.00, 187500.00, 187500.00, 187500.00, 187500.00, 187500.00, 0.000, 0.000, 0.000, 03:05:27.353
11, 34628.26, 9230.44, 187500.00, 187500.00, 187500.00, 187500.00, 187500.00, 187500.00, 0.000, 0.000, 0.000, 03:05:27.353
12, 34653.03, 9242.45, 187500.00, 187500.00, 187500.00, 187500.00, 187500.00, 187500.00, 0.000, 0.000, 0.000, 03:05:27.353
13, 34648.78, 9223.00, 187500.00, 187500.00, 187500.00, 187500.00, 187500.00, 187500.00, 0.000, 0.000, 0.000, 03:05:27.353
14, 34625.06, 9222.31, 187500.00, 187500.00, 187500.00, 187500.00, 187500.00, 187500.00, 0.000, 0.000, 0.000, 03:05:27.353
15, 34636.15, 9242.40, 187500.00, 187500.00, 187500.00, 187500.00, 187500.00, 187500.00, 0.000, 0.000, 0.000, 03:05:27.353
16, 34653.03, 9249.80, 187500.00, 187500.00, 187500.00, 187500.00, 187500.00, 187500.00, 0.000, 0.000, 0.000, 03:05:27.354
17, 34637.58, 9216.43, 187500.00, 187500.00, 187500.00, 187500.00, 187500.00, 187500.00, 0.186, 0.534, -0.866, 03:05:27.354
18, 34610.38, 9206.30, 187500.00, 187500.00, 187500.00, 187500.00, 187500.00, 187500.00, 0.000, 0.000, 0.000, 03:05:27.354
19, 34604.99, 9215.40, 187500.00, 187500.00, 187500.00, 187500.00, 187500.00, 187500.00, 0.000, 0.000, 0.000, 03:05:27.354
20, 34630.27, 9225.86, 187500.00, 187500.00, 187500.00, 187500.00, 187500.00, 187500.00, 0.000, 0.000, 0.000, 03:05:27.354
21, 34641.70, 9211.06, 187500.00, 187500.00, 187500.00, 187500.00, 187500.00, 187500.00, 0.000, 0.000, 0.000, 03:05:27.354
22, 34640.75, 9223.13, 187500.00, 187500.00, 187500.00, 187500.00, 187500.00, 187500.00, 0.000, 0.000, 0.000, 03:05:27.354
23, 34621.80, 9222.22, 187500.00, 187500.00, 187500.00, 187500.00, 187500.00, 187500.00, 0.000, 0.000, 0.000, 03:05:27.354
24, 34644.69, 9243.97, 187500.00, 187500.00, 187500.00, 187500.00, 187500.00, 187500.00, 0.000, 0.000, 0.000, 03:05:27.354
25, 34647.32, 9245.87, 187500.00, 187500.00, 187500.00, 187500.00, 187500.00, 187500.00, 0.000, 0.000, 0.000, 03:05:27.354
26, 34632.48, 9238.22, 187500.00, 187500.00, 187500.00, 187500.00, 187500.00, 187500.00, 0.000, 0.000, 0.000, 03:05:27.354
27, 34616.57, 9218.26, 187500.00, 187500.00, 187500.00, 187500.00, 187500.00, 187500.00, 0.192, 0.536, -0.870, 03:05:27.355
28, 34643.77, 9234.62, 187500.00, 187500.00, 187500.00, 187500.00, 187500.00, 187500.00, 0.000, 0.000, 0.000, 03:05:27.355
29, 34644.69, 9236.77, 187500.00, 187500.00, 187500.00, 187500.00, 187500.00, 187500.00, 0.000, 0.000, 0.000, 03:05:27.355
30, 34622.05, 9214.71, 187500.00, 187500.00, 187500.00, 187500.00, 187500.00, 187500.00, 0.000, 0.000, 0.000, 03:05:27.355
31, 34615.77, 9209.05, 187500.00, 187500.00, 187500.00, 187500.00, 187500.00, 187500.00, 0.000, 0.000, 0.000, 03:05:27.355
32, 34648.02, 9244.10, 187500.00, 187500.00, 187500.00, 187500.00, 187500.00, 187500.00, 0.000, 0.000, 0.000, 03:05:27.355
33, 34665.57, 9252.88, 187500.00, 187500.00, 187500.00, 187500.00, 187500.00, 187500.00, 0.000, 0.000, 0.000, 03:05:27.355
34, 34652.98, 9233.17, 187500.00, 187500.00, 187500.00, 187500.00, 187500.00, 187500.00, 0.000, 0.000, 0.000, 03:05:27.355
35, 34624.48, 9208.83, 187500.00, 187500.00, 187500.00, 187500.00, 187500.00, 187500.00, 0.000, 0.000, 0.000, 03:05:27.355
36, 34622.98, 9205.52, 187500.00, 187500.00, 187500.00, 187500.00, 187500.00, 187500.00, 0.000, 0.000, 0.000, 03:05:27.355
37, 34643.91, 9220.61, 187500.00, 187500.00, 187500.00, 187500.00, 187500.00, 187500.00, 0.190, 0.532, -0.866, 03:05:27.356
38, 34637.91, 9239.79, 187500.00, 187500.00, 187500.00, 187500.00, 187500.00, 187500.00, 0.000, 0.000, 0.000, 03:05:27.356
39, 34610.80, 9218.78, 187500.00, 187500.00, 187500.00, 187500.00, 187500.00, 187500.00, 0.000, 0.000, 0.000, 03:05:27.356
40, 34621.11, 9217.08, 187500.00, 187500.00, 187500.00, 187500.00, 187500.00, 187500.00, 0.000, 0.000, 0.000, 03:05:27.356
41, 34640.78, 9231.54, 187500.00, 187500.00, 187500.00, 187500.00, 187500.00, 187500.00, 0.000, 0.000, 0.000, 03:05:27.356
42, 34641.05, 9230.13, 187500.00, 187500.00, 187500.00, 187500.00, 187500.00, 187500.00, 0.000, 0.000, 0.000, 03:05:27.356
43, 34631.66, 9224.10, 187500.00, 187500.00, 187500.00, 187500.00, 187500.00, 187500.00, 0.000, 0.000, 0.000, 03:05:27.356
44, 34623.88, 9223.27, 187500.00, 187500.00, 187500.00, 187500.00, 187500.00, 187500.00, 0.000, 0.000, 0.000, 03:05:27.356
45, 34652.38, 9241.69, 187500.00, 187500.00, 187500.00, 187500.00, 187500.00, 187500.00, 0.000, 0.000, 0.000, 03:05:27.356
46, 34654.30, 9234.62, 187500.00, 187500.00, 187500.00, 187500.00, 187500.00, 187500.00, 0.000, 0.000, 0.000, 03:05:27.357
47, 34638.88, 9222.89, 187500.00, 187500.00, 187500.00, 187500.00, 187500.00, 187500.00, 0.186, 0.532, -0.866, 03:05:27.357
48, 34620.46, 9202.39, 187500.00, 187500.00, 187500.00, 187500.00, 187500.00, 187500.00, 0.000, 0.000, 0.000, 03:05:27.357
49, 34643.14, 9230.49, 187500.00, 187500.00, 187500.00, 187500.00, 187500.00, 187500.00, 0.000, 0.000, 0.000, 03:05:27.357
50, 34646.68, 9226.22, 187500.00, 187500.00, 187500.00, 187500.00, 187500.00, 187500.00, 0.000, 0.000, 0.000, 03:05:27.357
51, 34626.88, 9216.65, 187500.00, 187500.00, 187500.00, 187500.00, 187500.00, 187500.00, 0.000, 0.000, 0.000, 03:05:27.357
52, 34627.01, 9217.95, 187500.00, 187500.00, 187500.00, 187500.00, 187500.00, 187500.00, 0.000, 0.000, 0.000, 03:05:27.357
53, 34649.14, 9255.90, 187500.00, 187500.00, 187500.00, 187500.00, 187500.00, 187500.00, 0.000, 0.000, 0.000, 03:05:27.357
54, 34650.66, 9243.68, 187500.00, 187500.00, 187500.00, 187500.00, 187500.00, 187500.00, 0.000, 0.000, 0.000, 03:05:27.357
55, 34644.06, 9213.92, 187500.00, 187500.00, 187500.00, 187500.00, 187500.00, 187500.00, 0.000, 0.000, 0.000, 03:05:27.357
56, 34611.21, 9203.44, 187500.00, 187500.00, 187500.00, 187500.00, 187500.00, 187500.00, 0.000, 0.000, 0.000, 03:05:27.357
57, 34629.47, 9226.58, 187500.00, 187500.00, 187500.00, 187500.00, 187500.00, 187500.00, 0.190, 0.532, -0.862, 03:05:27.358
58, 34640.53, 9233.68, 187500.00, 187500.00, 187500.00, 187500.00, 187500.00, 187500.00, 0.000, 0.000, 0.000, 03:05:27.358
59, 34623.50, 9217.81, 187500.00, 187500.00, 187500.00, 187500.00, 187500.00, 187500.00, 0.000, 0.000, 0.000, 03:05:27.358
60, 34611.14, 9186.66, 187500.00, 187500.00, 187500.00, 187500.00, 187500.00, 187500.00, 0.000, 0.000, 0.000, 03:05:27.358
61, 34634.43, 9219.69, 187500.00, 187500.00, 187500.00, 187500.00, 187500.00, 187500.00, 0.000, 0.000, 0.000, 03:05:27.358
62, 34647.28, 9255.66, 187500.00, 187500.00, 187500.00, 187500.00, 187500.00, 187500.00, 0.000, 0.000, 0.000, 03:05:27.358
63, 34644.80, 9233.13, 187500.00, 187500.00, 187500.00, 187500.00, 187500.00, 187500.00, 0.000, 0.000, 0.000, 03:05:27.358
64, 34631.61, 9214.53, 187500.00, 187500.00, 187500.00, 187500.00, 187500.00, 187500.00, 0.000, 0.000, 0.000, 03:05:27.358
65, 34627.41, 9214.22, 187500.00, 187500.00, 187500.00, 187500.00, 187500.00, 187500.00, 0.000, 0.000, 0.000, 03:05:27.358
66, 34645.38, 9227.09, 187500.00, 187500.00, 187500.00, 187500.00, 187500.00, 187500.00, 0.000, 0.000, 0.000, 03:05:27.358
67, 34651.66, 9221.48, 187500.00, 187500.00, 187500.00, 187500.00, 187500.00, 187500.00, 0.190, 0.528, -0.864, 03:05:27.359
68, 34637.49, 9230.44, 187500.00, 187500.00, 187500.00, 187500.00, 187500.00, 187500.00, 0.000, 0.000, 0.000, 03:05:27.359
69, 34624.32, 9227.63, 187500.00, 187500.00, 187500.00, 187500.00, 187500.00, 187500.00, 0.000, 0.000, 0.000, 03:05:27.359
70, 34652.04, 9248.91, 187500.00, 187500.00, 187500.00, 187500.00, 187500.00, 187500.00, 0.000, 0.000, 0.000, 03:05:27.359
71, 34660.25, 9256.71, 187500.00, 187500.00, 187500.00, 187500.00, 187500.00, 187500.00, 0.000, 0.000, 0.000, 03:05:27.359
72, 34636.66, 9231.67, 187500.00, 187500.00, 187500.00, 187500.00, 187500.00, 187500.00, 0.000, 0.000, 0.000, 03:05:27.359
73, 34630.76, 9217.88, 187500.00, 187500.00, 187500.00, 187500.00, 187500.00, 187500.00, 0.000, 0.000, 0.000, 03:05:27.359
74, 34643.28, 9236.28, 187500.00, 187500.00, 187500.00, 187500.00, 187500.00, 187500.00, 0.000, 0.000, 0.000, 03:05:27.828
75, 34649.85, 9227.76, 187500.00, 187500.00, 187500.00, 187500.00, 187500.00, 187500.00, 0.000, 0.000, 0.000, 03:05:27.828
76, 34638.41, 9224.25, 187500.00, 187500.00, 187500.00, 187500.00, 187500.00, 187500.00, 0.194, 0.532, -0.866, 03:05:27.828
77, 34623.25, 9208.00, 187500.00, 187500.00, 187500.00, 187500.00, 187500.00, 187500.00, 0.000, 0.000, 0.000, 03:05:27.828
78, 34631.93, 9211.00, 187500.00, 187500.00, 187500.00, 187500.00, 187500.00, 187500.00, 0.000, 0.000, 0.000, 03:05:27.828
79, 34648.29, 9212.52, 187500.00, 187500.00, 187500.00, 187500.00, 187500.00, 187500.00, 0.000, 0.000, 0.000, 03:05:27.828
80, 34624.21, 9196.20, 187500.00, 187500.00, 187500.00, 187500.00, 187500.00, 187500.00, 0.000, 0.000, 0.000, 03:05:27.828
81, 34601.19, 9175.28, 187500.00, 187500.00, 187500.00, 187500.00, 187500.00, 187500.00, 0.000, 0.000, 0.000, 03:05:27.829
82, 34629.36, 9213.79, 187500.00, 187500.00, 187500.00, 187500.00, 187500.00, 187500.00, 0.000, 0.000, 0.000, 03:05:27.829
83, 34657.54, 9252.93, 187500.00, 187500.00, 187500.00, 187500.00, 187500.00, 187500.00, 0.000, 0.000, 0.000, 03:05:27.829
84, 34650.21, 9234.78, 187500.00, 187500.00, 187500.00, 187500.00, 187500.00, 187500.00, 0.000, 0.000, 0.000, 03:05:27.829
85, 34620.04, 9202.59, 187500.00, 187500.00, 187500.00, 187500.00, 187500.00, 187500.00, 0.000, 0.000, 0.000, 03:05:27.829
86, 34625.38, 9234.09, 187500.00, 187500.00, 187500.00, 187500.00, 187500.00, 187500.00, 0.194, 0.530, -0.862, 03:05:27.829
87, 34656.98, 9266.99, 187500.00, 187500.00, 187500.00, 187500.00, 187500.00, 187500.00, 0.000, 0.000, 0.000, 03:05:27.830
88, 34649.70, 9244.52, 187500.00, 187500.00, 187500.00, 187500.00, 187500.00, 187500.00, 0.000, 0.000, 0.000, 03:05:27.830
89, 34621.24, 9219.45, 187500.00, 187500.00, 187500.00, 187500.00, 187500.00, 187500.00, 0.000, 0.000, 0.000, 03:05:27.830
90, 34615.34, 9208.94, 187500.00, 187500.00, 187500.00, 187500.00, 187500.00, 187500.00, 0.000, 0.000, 0.000, 03:05:27.830
91, 34642.23, 9237.15, 187500.00, 187500.00, 187500.00, 187500.00, 187500.00, 187500.00, 0.000, 0.000, 0.000, 03:05:27.830
92, 34640.42, 9237.17, 187500.00, 187500.00, 187500.00, 187500.00, 187500.00, 187500.00, 0.000, 0.000, 0.000, 03:05:27.830
93, 34626.34, 9228.12, 187500.00, 187500.00, 187500.00, 187500.00, 187500.00, 187500.00, 0.000, 0.000, 0.000, 03:05:27.830
94, 34622.83, 9216.29, 187500.00, 187500.00, 187500.00, 187500.00, 187500.00, 187500.00, 0.000, 0.000, 0.000, 03:05:27.830
95, 34635.75, 9225.79, 187500.00, 187500.00, 187500.00, 187500.00, 187500.00, 187500.00, 0.000, 0.000, 0.000, 03:05:27.831
96, 34650.70, 9229.93, 187500.00, 187500.00, 187500.00, 187500.00, 187500.00, 187500.00, 0.194, 0.530, -0.864, 03:05:27.831
97, 34640.15, 9211.18, 187500.00, 187500.00, 187500.00, 187500.00, 187500.00, 187500.00, 0.000, 0.000, 0.000, 03:05:27.831
98, 34615.96, 9220.45, 187500.00, 187500.00, 187500.00, 187500.00, 187500.00, 187500.00, 0.000, 0.000, 0.000, 03:05:27.831
99, 34635.55, 9224.36, 187500.00, 187500.00, 187500.00, 187500.00, 187500.00, 187500.00, 0.000, 0.000, 0.000, 03:05:27.831
100, 34631.70, 9225.30, 187500.00, 187500.00, 187500.00, 187500.00, 187500.00, 187500.00, 0.000, 0.000, 0.000, 03:05:27.831
101, 34617.44, 9207.47, 187500.00, 187500.00, 187500.00, 187500.00, 187500.00, 187500.00, 0.000, 0.000, 0.000, 03:05:27.831
102, 34603.61, 9192.71, 187500.00, 187500.00, 187500.00, 187500.00, 187500.00, 187500.00, 0.000, 0.000, 0.000, 03:05:27.831
103, 34642.54, 9217.88, 187500.00, 187500.00, 187500.00, 187500.00, 187500.00, 187500.00, 0.000, 0.000, 0.000, 03:05:27.831
104, 34640.40, 9233.37, 187500.00, 187500.00, 187500.00, 187500.00, 187500.00, 187500.00, 0.000, 0.000, 0.000, 03:05:27.831
105, 34627.28, 9225.73, 187500.00, 187500.00, 187500.00, 187500.00, 187500.00, 187500.00, 0.000, 0.000, 0.000, 03:05:27.832
106, 34618.43, 9203.73, 187500.00, 187500.00, 187500.00, 187500.00, 187500.00, 187500.00, 0.190, 0.528, -0.870, 03:05:27.832
107, 34637.65, 9230.62, 187500.00, 187500.00, 187500.00, 187500.00, 187500.00, 187500.00, 0.000, 0.000, 0.000, 03:05:27.832
108, 34648.27, 9223.76, 187500.00, 187500.00, 187500.00, 187500.00, 187500.00, 187500.00, 0.000, 0.000, 0.000, 03:05:27.832
109, 34637.16, 9233.80, 187500.00, 187500.00, 187500.00, 187500.00, 187500.00, 187500.00, 0.000, 0.000, 0.000, 03:05:27.832
110, 34621.64, 9220.00, 187500.00, 187500.00, 187500.00, 187500.00, 187500.00, 187500.00, 0.000, 0.000, 0.000, 03:05:27.832
111, 34622.49, 9209.88, 187500.00, 187500.00, 187500.00, 187500.00, 187500.00, 187500.00, 0.000, 0.000, 0.000, 03:05:27.832
112, 34645.63, 9233.53, 187500.00, 187500.00, 187500.00, 187500.00, 187500.00, 187500.00, 0.000, 0.000, 0.000, 03:05:27.832
113, 34628.46, 9213.68, 187500.00, 187500.00, 187500.00, 187500.00, 187500.00, 187500.00, 0.000, 0.000, 0.000, 03:05:27.833
114, 34602.67, 9204.31, 187500.00, 187500.00, 187500.00, 187500.00, 187500.00, 187500.00, 0.000, 0.000, 0.000, 03:05:27.833
115, 34614.54, 9210.13, 187500.00, 187500.00, 187500.00, 187500.00, 187500.00, 187500.00, 0.000, 0.000, 0.000, 03:05:27.833
116, 34656.42, 9225.73, 187500.00, 187500.00, 187500.00, 187500.00, 187500.00, 187500.00, 0.194, 0.526, -0.864, 03:05:27.833
117, 34653.16, 9222.13, 187500.00, 187500.00, 187500.00, 187500.00, 187500.00, 187500.00, 0.000, 0.000, 0.000, 03:05:27.833
118, 34631.23, 9202.01, 187500.00, 187500.00, 187500.00, 187500.00, 187500.00, 187500.00, 0.000, 0.000, 0.000, 03:05:27.833
119, 34607.94, 9200.96, 187500.00, 187500.00, 187500.00, 187500.00, 187500.00, 187500.00, 0.000, 0.000, 0.000, 03:05:27.833
120, 34636.22, 9233.75, 187500.00, 187500.00, 187500.00, 187500.00, 187500.00, 187500.00, 0.000, 0.000, 0.000, 03:05:27.833
121, 34643.77, 9235.29, 187500.00, 187500.00, 187500.00, 187500.00, 187500.00, 187500.00, 0.000, 0.000, 0.000, 03:05:27.834
122, 34631.88, 9211.73, 187500.00, 187500.00, 187500.00, 187500.00, 187500.00, 187500.00, 0.000, 0.000, 0.000, 03:05:27.834
123, 34617.91, 9196.38, 187500.00, 187500.00, 187500.00, 187500.00, 187500.00, 187500.00, 0.000, 0.000, 0.000, 03:05:27.834
124, 34646.05, 9210.73, 187500.00, 187500.00, 187500.00, 187500.00, 187500.00, 187500.00, 0.000, 0.000, 0.000, 03:05:27.834
125, 34658.08, 9219.38, 187500.00, 187500.00, 187500.00, 187500.00, 187500.00, 187500.00, 0.000, 0.000, 0.000, 03:05:27.834
126, 34643.13, 9217.90, 187500.00, 187500.00, 187500.00, 187500.00, 187500.00, 187500.00, 0.194, 0.530, -0.868, 03:05:27.834
127, 34618.52, 9193.67, 187500.00, 187500.00, 187500.00, 187500.00, 187500.00, 187500.00, 0.000, 0.000, 0.000, 03:05:27.834
128, 34643.19, 9227.98, 187500.00, 187500.00, 187500.00, 187500.00, 187500.00, 187500.00, 0.000, 0.000, 0.000, 03:05:27.834
129, 34663.64, 9235.88, 187500.00, 187500.00, 187500.00, 187500.00, 187500.00, 187500.00, 0.000, 0.000, 0.000, 03:05:27.835
130, 34661.30, 9221.48, 187500.00, 187500.00, 187500.00, 187500.00, 187500.00, 187500.00, 0.000, 0.000, 0.000, 03:05:27.835
131, 34646.19, 9237.80, 187500.00, 187500.00, 187500.00, 187500.00, 187500.00, 187500.00, 0.000, 0.000, 0.000, 03:05:27.835
132, 34650.77, 9225.88, 187500.00, 187500.00, 187500.00, 187500.00, 187500.00, 187500.00, 0.000, 0.000, 0.000, 03:05:27.835
133, 34664.54, 9233.86, 187500.00, 187500.00, 187500.00, 187500.00, 187500.00, 187500.00, 0.000, 0.000, 0.000, 03:05:27.835
134, 34658.46, 9242.51, 187500.00, 187500.00, 187500.00, 187500.00, 187500.00, 187500.00, 0.000, 0.000, 0.000, 03:05:27.835
135, 34640.06, 9218.71, 187500.00, 187500.00, 187500.00, 187500.00, 187500.00, 187500.00, 0.000, 0.000, 0.000, 03:05:27.835
136, 34646.90, 9216.14, 187500.00, 187500.00, 187500.00, 187500.00, 187500.00, 187500.00, 0.192, 0.532, -0.862, 03:05:27.835
137, 34681.12, 9238.67, 187500.00, 187500.00, 187500.00, 187500.00, 187500.00, 187500.00, 0.000, 0.000, 0.000, 03:05:27.836
138, 34668.76, 9223.74, 187500.00, 187500.00, 187500.00, 187500.00, 187500.00, 187500.00, 0.000, 0.000, 0.000, 03:05:27.836
139, 34656.96, 9225.53, 187500.00, 187500.00, 187500.00, 187500.00, 187500.00, 187500.00, 0.000, 0.000, 0.000, 03:05:27.836
140, 34652.60, 9231.83, 187500.00, 187500.00, 187500.00, 187500.00, 187500.00, 187500.00, 0.000, 0.000, 0.000, 03:05:27.836
141, 34667.84, 9248.73, 187500.00, 187500.00, 187500.00, 187500.00, 187500.00, 187500.00, 0.000, 0.000, 0.000, 03:05:27.836
142, 34663.78, 9236.59, 187500.00, 187500.00, 187500.00, 187500.00, 187500.00, 187500.00, 0.000, 0.000, 0.000, 03:05:27.836
143, 34652.36, 9216.92, 187500.00, 187500.00, 187500.00, 187500.00, 187500.00, 187500.00, 0.000, 0.000, 0.000, 03:05:27.836
144, 34632.13, 9207.26, 187500.00, 187500.00, 187500.00, 187500.00, 187500.00, 187500.00, 0.000, 0.000, 0.000, 03:05:27.836
145, 34670.53, 9233.28, 187500.00, 187500.00, 187500.00, 187500.00, 187500.00, 187500.00, 0.190, 0.532, -0.860, 03:05:27.836
146, 34675.00, 9237.04, 187500.00, 187500.00, 187500.00, 187500.00, 187500.00, 187500.00, 0.000, 0.000, 0.000, 03:05:27.837
147, 34662.08, 9221.88, 187500.00, 187500.00, 187500.00, 187500.00, 187500.00, 187500.00, 0.000, 0.000, 0.000, 03:05:27.837
148, 34638.96, 9226.78, 187500.00, 187500.00, 187500.00, 187500.00, 187500.00, 187500.00, 0.000, 0.000, 0.000, 03:05:27.837
149, 34649.02, 9226.33, 187500.00, 187500.00, 187500.00, 187500.00, 187500.00, 187500.00, 0.000, 0.000, 0.000, 03:05:27.837
150, 34661.18, 9228.95, 187500.00, 187500.00, 187500.00, 187500.00, 187500.00, 187500.00, 0.000, 0.000, 0.000, 03:05:27.837
151, 34647.68, 9229.10, 187500.00, 187500.00, 187500.00, 187500.00, 187500.00, 187500.00, 0.000, 0.000, 0.000, 03:05:27.837
152, 34636.89, 9220.43, 187500.00, 187500.00, 187500.00, 187500.00, 187500.00, 187500.00, 0.000, 0.000, 0.000, 03:05:27.837
153, 34652.00, 9235.76, 187500.00, 187500.00, 187500.00, 187500.00, 187500.00, 187500.00, 0.000, 0.000, 0.000, 03:05:27.837
154, 34669.03, 9234.22, 187500.00, 187500.00, 187500.00, 187500.00, 187500.00, 187500.00, 0.000, 0.000, 0.000, 03:05:27.837
155, 34656.09, 9232.95, 187500.00, 187500.00, 187500.00, 187500.00, 187500.00, 187500.00, 0.190, 0.532, -0.868, 03:05:27.837
156, 34636.98, 9222.62, 187500.00, 187500.00, 187500.00, 187500.00, 187500.00, 187500.00, 0.000, 0.000, 0.000, 03:05:27.838
157, 34642.16, 9217.26, 187500.00, 187500.00, 187500.00, 187500.00, 187500.00, 187500.00, 0.000, 0.000, 0.000, 03:05:27.838
158, 34671.15, 9242.78, 187500.00, 187500.00, 187500.00, 187500.00, 187500.00, 187500.00, 0.000, 0.000, 0.000, 03:05:27.838
159, 34657.94, 9236.46, 187500.00, 187500.00, 187500.00, 187500.00, 187500.00, 187500.00, 0.000, 0.000, 0.000, 03:05:27.838
160, 34628.15, 9194.12, 187500.00, 187500.00, 187500.00, 187500.00, 187500.00, 187500.00, 0.000, 0.000, 0.000, 03:05:27.838
161, 34637.16, 9218.91, 187500.00, 187500.00, 187500.00, 187500.00, 187500.00, 187500.00, 0.000, 0.000, 0.000, 03:05:27.838
162, 34659.91, 9248.93, 187500.00, 187500.00, 187500.00, 187500.00, 187500.00, 187500.00, 0.000, 0.000, 0.000, 03:05:27.838
163, 34644.46, 9220.61, 187500.00, 187500.00, 187500.00, 187500.00, 187500.00, 187500.00, 0.000, 0.000, 0.000, 03:05:27.838
164, 34638.39, 9240.46, 187500.00, 187500.00, 187500.00, 187500.00, 187500.00, 187500.00, 0.000, 0.000, 0.000, 03:05:27.838
165, 34633.94, 9230.87, 187500.00, 187500.00, 187500.00, 187500.00, 187500.00, 187500.00, 0.196, 0.530, -0.868, 03:05:27.838
166, 34652.98, 9246.67, 187500.00, 187500.00, 187500.00, 187500.00, 187500.00, 187500.00, 0.000, 0.000, 0.000, 03:05:27.839
167, 34654.64, 9240.81, 187500.00, 187500.00, 187500.00, 187500.00, 187500.00, 187500.00, 0.000, 0.000, 0.000, 03:05:27.839
168, 34633.49, 9215.98, 187500.00, 187500.00, 187500.00, 187500.00, 187500.00, 187500.00, 0.000, 0.000, 0.000, 03:05:27.839
169, 34629.55, 9207.40, 187500.00, 187500.00, 187500.00, 187500.00, 187500.00, 187500.00, 0.000, 0.000, 0.000, 03:05:27.839
170, 34653.50, 9244.26, 187500.00, 187500.00, 187500.00, 187500.00, 187500.00, 187500.00, 0.000, 0.000, 0.000, 03:05:27.839
171, 34645.65, 9238.09, 187500.00, 187500.00, 187500.00, 187500.00, 187500.00, 187500.00, 0.000, 0.000, 0.000, 03:05:27.839
172, 34632.44, 9222.73, 187500.00, 187500.00, 187500.00, 187500.00, 187500.00, 187500.00, 0.000, 0.000, 0.000, 03:05:27.839
173, 34616.50, 9202.41, 187500.00, 187500.00, 187500.00, 187500.00, 187500.00, 187500.00, 0.000, 0.000, 0.000, 03:05:27.839
174, 34641.20, 9216.83, 187500.00, 187500.00, 187500.00, 187500.00, 187500.00, 187500.00, 0.000, 0.000, 0.000, 03:05:27.839
175, 34663.22, 9244.59, 187500.00, 187500.00, 187500.00, 187500.00, 187500.00, 187500.00, 0.188, 0.530, -0.868, 03:05:27.839
176, 34660.78, 9249.31, 187500.00, 187500.00, 187500.00, 187500.00, 187500.00, 187500.00, 0.000, 0.000, 0.000, 03:05:27.840
177, 34639.19, 9219.63, 187500.00, 187500.00, 187500.00, 187500.00, 187500.00, 187500.00, 0.000, 0.000, 0.000, 03:05:27.840
178, 34655.26, 9208.05, 187500.00, 187500.00, 187500.00, 187500.00, 187500.00, 187500.00, 0.000, 0.000, 0.000, 03:05:27.840
179, 34661.03, 9226.38, 187500.00, 187500.00, 187500.00, 187500.00, 187500.00, 187500.00, 0.000, 0.000, 0.000, 03:05:27.840
180, 34650.19, 9247.54, 187500.00, 187500.00, 187500.00, 187500.00, 187500.00, 187500.00, 0.000, 0.000, 0.000, 03:05:27.840
181, 34625.60, 9218.62, 187500.00, 187500.00, 187500.00, 187500.00, 187500.00, 187500.00, 0.000, 0.000, 0.000, 03:05:27.840
182, 34635.03, 9230.67, 187500.00, 187500.00, 187500.00, 187500.00, 187500.00, 187500.00, 0.000, 0.000, 0.000, 03:05:27.840
183, 34653.72, 9250.25, 187500.00, 187500.00, 187500.00, 187500.00, 187500.00, 187500.00, 0.000, 0.000, 0.000, 03:05:27.840
184, 34639.95, 9236.90, 187500.00, 187500.00, 187500.00, 187500.00, 187500.00, 187500.00, 0.000, 0.000, 0.000, 03:05:27.840
185, 34626.18, 9213.41, 187500.00, 187500.00, 187500.00, 187500.00, 187500.00, 187500.00, 0.182, 0.534, -0.870, 03:05:27.840
186, 34624.95, 9206.57, 187500.00, 187500.00, 187500.00, 187500.00, 187500.00, 187500.00, 0.000, 0.000, 0.000, 03:05:27.840
187, 34645.00, 9236.57, 187500.00, 187500.00, 187500.00, 187500.00, 187500.00, 187500.00, 0.000, 0.000, 0.000, 03:05:27.841
188, 34646.79, 9233.97, 187500.00, 187500.00, 187500.00, 187500.00, 187500.00, 187500.00, 0.000, 0.000, 0.000, 03:05:27.841
189, 34638.70, 9223.47, 187500.00, 187500.00, 187500.00, 187500.00, 187500.00, 187500.00, 0.000, 0.000, 0.000, 03:05:27.841
190, 34632.24, 9198.32, 187500.00, 187500.00, 187500.00, 187500.00, 187500.00, 187500.00, 0.000, 0.000, 0.000, 03:05:27.841
191, 34643.66, 9236.19, 187500.00, 187500.00, 187500.00, 187500.00, 187500.00, 187500.00, 0.000, 0.000, 0.000, 03:05:27.841
192, 34642.30, 9248.21, 187500.00, 187500.00, 187500.00, 187500.00, 187500.00, 187500.00, 0.000, 0.000, 0.000, 03:05:27.841
193, 34643.93, 9237.95, 187500.00, 187500.00, 187500.00, 187500.00, 187500.00, 187500.00, 0.000, 0.000, 0.000, 03:05:27.841
194, 34622.09, 9210.62, 187500.00, 187500.00, 187500.00, 187500.00, 187500.00, 187500.00, 0.000, 0.000, 0.000, 03:05:28.308
195, 34641.49, 9225.37, 187500.00, 187500.00, 187500.00, 187500.00, 187500.00, 187500.00, 0.184, 0.536, -0.868, 03:05:28.308
196, 34643.95, 9216.18, 187500.00, 187500.00, 187500.00, 187500.00, 187500.00, 187500.00, 0.000, 0.000, 0.000, 03:05:28.308
197, 34630.76, 9252.10, 187500.00, 187500.00, 187500.00, 187500.00, 187500.00, 187500.00, 0.000, 0.000, 0.000, 03:05:28.308
198, 34617.57, 9221.23, 187500.00, 187500.00, 187500.00, 187500.00, 187500.00, 187500.00, 0.000, 0.000, 0.000, 03:05:28.308
199, 34653.45, 9237.82, 187500.00, 187500.00, 187500.00, 187500.00, 187500.00, 187500.00, 0.000, 0.000, 0.000, 03:05:28.308
200, 34669.10, 9255.86, 187500.00, 187500.00, 187500.00, 187500.00, 187500.00, 187500.00, 0.000, 0.000, 0.000, 03:05:28.309
