%OpenBCI Raw EEG Data
%
%Sample Rate = 250.0 Hz
%First Column = SampleIndex
%Last Column = Timestamp 
%Other Columns = EEG data in microvolts followed by Accel Data (in G) interleaved with Aux Data
0, 0.00, 0.00, 0.00, 0.00, 0.00, 0.00, 0.00, 0.00, 0.208, 0.474, -0.900, 03:02:48.930
1, 34542.43, 9098.08, 187500.00, 187500.00, 187500.00, 187500.00, 187500.00, 187500.00, 0.000, 0.000, 0.000, 03:02:49.412
2, 34553.20, 9097.92, 187500.00, 187500.00, 187500.00, 187500.00, 187500.00, 187500.00, 0.000, 0.000, 0.000, 03:02:49.412
3, 34541.76, 9074.45, 187500.00, 187500.00, 187500.00, 187500.00, 187500.00, 187500.00, 0.000, 0.000, 0.000, 03:02:49.412
4, 34514.54, 9050.96, 187500.00, 187500.00, 187500.00, 187500.00, 187500.00, 187500.00, 0.000, 0.000, 0.000, 03:02:49.412
5, 34530.23, 9071.77, 187500.00, 187500.00, 187500.00, 187500.00, 187500.00, 187500.00, 0.000, 0.000, 0.000, 03:02:49.412
6, 34550.07, 9093.43, 187500.00, 187500.00, 187500.00, 187500.00, 187500.00, 187500.00, 0.000, 0.000, 0.000, 03:02:49.412
7, 34538.41, 9081.42, 187500.00, 187500.00, 187500.00, 187500.00, 187500.00, 187500.00, 0.000, 0.000, 0.000, 03:02:49.412
8, 34512.46, 9043.83, 187500.00, 187500.00, 187500.00, 187500.00, 187500.00, 187500.00, 0.206, 0.486, -0.894, 03:02:49.412
9, 34524.64, 9053.93, 187500.00, 187500.00, 187500.00, 187500.00, 187500.00, 187500.00, 0.000, 0.000, 0.000, 03:02:49.412
10, 34548.87, 9086.63, 187500.00, 187500.00, 187500.00, 187500.00, 187500.00, 187500.00, 0.000, 0.000, 0.000, 03:02:49.412
11, 34535.93, 9088.53, 187500.00, 187500.00, 187500.00, 187500.00, 187500.00, 187500.00, 0.000, 0.000, 0.000, 03:02:49.413
12, 34508.59, 9065.84, 187500.00, 187500.00, 187500.00, 187500.00, 187500.00, 187500.00, 0.000, 0.000, 0.000, 03:02:49.413
13, 34504.66, 9063.65, 187500.00, 187500.00, 187500.00, 187500.00, 187500.00, 187500.00, 0.000, 0.000, 0.000, 03:02:49.413
14, 34541.51, 9105.56, 187500.00, 187500.00, 187500.00, 187500.00, 187500.00, 187500.00, 0.000, 0.000, 0.000, 03:02:49.413
15, 34538.76, 9093.72, 187500.00, 187500.00, 187500.00, 187500.00, 187500.00, 187500.00, 0.000, 0.000, 0.000, 03:02:49.413
16, 34526.80, 9074.61, 187500.00, 187500.00, 187500.00, 187500.00, 187500.00, 187500.00, 0.000, 0.000, 0.000, 03:02:49.413
17, 34501.44, 9070.34, 187500.00, 187500.00, 187500.00, 187500.00, 187500.00, 187500.00, 0.208, 0.492, -0.890, 03:02:49.413
18, 34526.22, 9070.18, 187500.00, 187500.00, 187500.00, 187500.00, 187500.00, 187500.00, 0.000, 0.000, 0.000, 03:02:49.413
19, 34524.08, 9062.98, 187500.00, 187500.00, 187500.00, 187500.00, 187500.00, 187500.00, 0.000, 0.000, 0.000, 03:02:49.413
20, 34511.25, 9085.11, 187500.00, 187500.00, 187500.00, 187500.00, 187500.00, 187500.00, 0.000, 0.000, 0.000, 03:02:49.413
21, 34498.73, 9059.56, 187500.00, 187500.00, 187500.00, 187500.00, 187500.00, 187500.00, 0.000, 0.000, 0.000, 03:02:49.414
22, 34532.64, 9082.77, 187500.00, 187500.00, 187500.00, 187500.00, 187500.00, 187500.00, 0.000, 0.000, 0.000, 03:02:49.414
23, 34542.63, 9080.51, 187500.00, 187500.00, 187500.00, 187500.00, 187500.00, 187500.00, 0.000, 0.000, 0.000, 03:02:49.414
24, 34528.26, 9082.16, 187500.00, 187500.00, 187500.00, 187500.00, 187500.00, 187500.00, 0.000, 0.000, 0.000, 03:02:49.414
25, 34509.95, 9059.36, 187500.00, 187500.00, 187500.00, 187500.00, 187500.00, 187500.00, 0.000, 0.000, 0.000, 03:02:49.414
26, 34526.00, 9075.70, 187500.00, 187500.00, 187500.00, 187500.00, 187500.00, 187500.00, 0.000, 0.000, 0.000, 03:02:49.414
27, 34544.44, 9115.91, 187500.00, 187500.00, 187500.00, 187500.00, 187500.00, 187500.00, 0.202, 0.498, -0.886, 03:02:49.414
28, 34533.33, 9090.66, 187500.00, 187500.00, 187500.00, 187500.00, 187500.00, 187500.00, 0.000, 0.000, 0.000, 03:02:49.414
29, 34512.10, 9062.09, 187500.00, 187500.00, 187500.00, 187500.00, 187500.00, 187500.00, 0.000, 0.000, 0.000, 03:02:49.414
30, 34518.67, 9055.50, 187500.00, 187500.00, 187500.00, 187500.00, 187500.00, 187500.00, 0.000, 0.000, 0.000, 03:02:49.414
31, 34549.78, 9093.99, 187500.00, 187500.00, 187500.00, 187500.00, 187500.00, 187500.00, 0.000, 0.000, 0.000, 03:02:49.415
32, 34538.50, 9066.31, 187500.00, 187500.00, 187500.00, 187500.00, 187500.00, 187500.00, 0.000, 0.000, 0.000, 03:02:49.415
33, 34514.20, 9055.32, 187500.00, 187500.00, 187500.00, 187500.00, 187500.00, 187500.00, 0.000, 0.000, 0.000, 03:02:49.415
34, 34520.64, 9076.89, 187500.00, 187500.00, 187500.00, 187500.00, 187500.00, 187500.00, 0.000, 0.000, 0.000, 03:02:49.415
35, 34549.78, 9100.56, 187500.00, 187500.00, 187500.00, 187500.00, 187500.00, 187500.00, 0.000, 0.000, 0.000, 03:02:49.415
36, 34546.92, 9092.20, 187500.00, 187500.00, 187500.00, 187500.00, 187500.00, 187500.00, 0.000, 0.000, 0.000, 03:02:49.415
37, 34523.14, 9067.68, 187500.00, 187500.00, 187500.00, 187500.00, 187500.00, 187500.00, 0.204, 0.502, -0.878, 03:02:49.415
38, 34515.68, 9058.25, 187500.00, 187500.00, 187500.00, 187500.00, 187500.00, 187500.00, 0.000, 0.000, 0.000, 03:02:49.415
39, 34547.28, 9083.93, 187500.00, 187500.00, 187500.00, 187500.00, 187500.00, 187500.00, 0.000, 0.000, 0.000, 03:02:49.415
40, 34558.66, 9096.85, 187500.00, 187500.00, 187500.00, 187500.00, 187500.00, 187500.00, 0.000, 0.000, 0.000, 03:02:49.415
41, 34540.46, 9070.63, 187500.00, 187500.00, 187500.00, 187500.00, 187500.00, 187500.00, 0.000, 0.000, 0.000, 03:02:49.415
42, 34523.57, 9060.59, 187500.00, 187500.00, 187500.00, 187500.00, 187500.00, 187500.00, 0.000, 0.000, 0.000, 03:02:49.416
43, 34540.04, 9093.38, 187500.00, 187500.00, 187500.00, 187500.00, 187500.00, 187500.00, 0.000, 0.000, 0.000, 03:02:49.416
44, 34546.18, 9095.33, 187500.00, 187500.00, 187500.00, 187500.00, 187500.00, 187500.00, 0.000, 0.000, 0.000, 03:02:49.416
45, 34526.36, 9049.71, 187500.00, 187500.00, 187500.00, 187500.00, 187500.00, 187500.00, 0.000, 0.000, 0.000, 03:02:49.416
46, 34502.84, 9058.47, 187500.00, 187500.00, 187500.00, 187500.00, 187500.00, 187500.00, 0.000, 0.000, 0.000, 03:02:49.416
47, 34522.22, 9080.35, 187500.00, 187500.00, 187500.00, 187500.00, 187500.00, 187500.00, 0.202, 0.506, -0.880, 03:02:49.416
48, 34538.54, 9093.38, 187500.00, 187500.00, 187500.00, 187500.00, 187500.00, 187500.00, 0.000, 0.000, 0.000, 03:02:49.416
49, 34533.94, 9084.40, 187500.00, 187500.00, 187500.00, 187500.00, 187500.00, 187500.00, 0.000, 0.000, 0.000, 03:02:49.416
50, 34509.77, 9047.94, 187500.00, 187500.00, 187500.00, 187500.00, 187500.00, 187500.00, 0.000, 0.000, 0.000, 03:02:49.416
51, 34527.75, 9065.49, 187500.00, 187500.00, 187500.00, 187500.00, 187500.00, 187500.00, 0.000, 0.000, 0.000, 03:02:49.416
52, 34549.49, 9087.44, 187500.00, 187500.00, 187500.00, 187500.00, 187500.00, 187500.00, 0.000, 0.000, 0.000, 03:02:49.417
53, 34544.39, 9074.65, 187500.00, 187500.00, 187500.00, 187500.00, 187500.00, 187500.00, 0.000, 0.000, 0.000, 03:02:49.417
54, 34520.55, 9060.26, 187500.00, 187500.00, 187500.00, 187500.00, 187500.00, 187500.00, 0.000, 0.000, 0.000, 03:02:49.417
55, 34526.47, 9053.39, 187500.00, 187500.00, 187500.00, 187500.00, 187500.00, 187500.00, 0.000, 0.000, 0.000, 03:02:49.417
56, 34550.32, 9081.16, 187500.00, 187500.00, 187500.00, 187500.00, 187500.00, 187500.00, 0.000, 0.000, 0.000, 03:02:49.417
57, 34539.52, 9069.42, 187500.00, 187500.00, 187500.00, 187500.00, 187500.00, 187500.00, 0.202, 0.502, -0.880, 03:02:49.417
58, 34526.47, 9059.36, 187500.00, 187500.00, 187500.00, 187500.00, 187500.00, 187500.00, 0.000, 0.000, 0.000, 03:02:49.417
59, 34528.62, 9074.18, 187500.00, 187500.00, 187500.00, 187500.00, 187500.00, 187500.00, 0.000, 0.000, 0.000, 03:02:49.417
60, 34548.22, 9085.42, 187500.00, 187500.00, 187500.00, 187500.00, 187500.00, 187500.00, 0.000, 0.000, 0.000, 03:02:49.417
61, 34549.18, 9093.32, 187500.00, 187500.00, 187500.00, 187500.00, 187500.00, 187500.00, 0.000, 0.000, 0.000, 03:02:49.417
62, 34530.23, 9068.21, 187500.00, 187500.00, 187500.00, 187500.00, 187500.00, 187500.00, 0.000, 0.000, 0.000, 03:02:49.418
63, 34520.93, 9053.66, 187500.00, 187500.00, 187500.00, 187500.00, 187500.00, 187500.00, 0.000, 0.000, 0.000, 03:02:49.418
64, 34541.58, 9055.36, 187500.00, 187500.00, 187500.00, 187500.00, 187500.00, 187500.00, 0.000, 0.000, 0.000, 03:02:49.418
65, 34549.31, 9089.22, 187500.00, 187500.00, 187500.00, 187500.00, 187500.00, 187500.00, 0.000, 0.000, 0.000, 03:02:49.418
66, 34536.11, 9068.71, 187500.00, 187500.00, 187500.00, 187500.00, 187500.00, 187500.00, 0.000, 0.000, 0.000, 03:02:49.418
67, 34517.21, 9074.29, 187500.00, 187500.00, 187500.00, 187500.00, 187500.00, 187500.00, 0.204, 0.498, -0.880, 03:02:49.425
68, 34561.83, 9106.93, 187500.00, 187500.00, 187500.00, 187500.00, 187500.00, 187500.00, 0.000, 0.000, 0.000, 03:02:49.425
69, 34564.02, 9098.95, 187500.00, 187500.00, 187500.00, 187500.00, 187500.00, 187500.00, 0.000, 0.000, 0.000, 03:02:49.425
70, 34547.48, 9075.81, 187500.00, 187500.00, 187500.00, 187500.00, 187500.00, 187500.00, 0.000, 0.000, 0.000, 03:02:49.425
71, 34523.48, 9034.62, 187500.00, 187500.00, 187500.00, 187500.00, 187500.00, 187500.00, 0.000, 0.000, 0.000, 03:02:49.426
72, 34539.50, 9052.19, 187500.00, 187500.00, 187500.00, 187500.00, 187500.00, 187500.00, 0.000, 0.000, 0.000, 03:02:49.426
73, 34550.07, 9091.46, 187500.00, 187500.00, 187500.00, 187500.00, 187500.00, 187500.00, 0.000, 0.000, 0.000, 03:02:49.426
74, 34535.25, 9081.51, 187500.00, 187500.00, 187500.00, 187500.00, 187500.00, 187500.00, 0.000, 0.000, 0.000, 03:02:49.426
75, 34529.69, 9066.02, 187500.00, 187500.00, 187500.00, 187500.00, 187500.00, 187500.00, 0.000, 0.000, 0.000, 03:02:49.426
76, 34541.76, 9070.02, 187500.00, 187500.00, 187500.00, 187500.00, 187500.00, 187500.00, 0.206, 0.496, -0.880, 03:02:49.426
77, 34559.06, 9085.85, 187500.00, 187500.00, 187500.00, 187500.00, 187500.00, 187500.00, 0.000, 0.000, 0.000, 03:02:49.426
78, 34553.67, 9073.24, 187500.00, 187500.00, 187500.00, 187500.00, 187500.00, 187500.00, 0.000, 0.000, 0.000, 03:02:49.426
79, 34514.47, 9054.83, 187500.00, 187500.00, 187500.00, 187500.00, 187500.00, 187500.00, 0.000, 0.000, 0.000, 03:02:49.426
80, 34522.18, 9048.63, 187500.00, 187500.00, 187500.00, 187500.00, 187500.00, 187500.00, 0.000, 0.000, 0.000, 03:02:49.427
81, 34554.12, 9092.44, 187500.00, 187500.00, 187500.00, 187500.00, 187500.00, 187500.00, 0.000, 0.000, 0.000, 03:02:49.427
82, 34546.79, 9103.11, 187500.00, 187500.00, 187500.00, 187500.00, 187500.00, 187500.00, 0.000, 0.000, 0.000, 03:02:49.427
83, 34515.47, 9042.98, 187500.00, 187500.00, 187500.00, 187500.00, 187500.00, 187500.00, 0.000, 0.000, 0.000, 03:02:49.427
84, 34510.96, 9045.24, 187500.00, 187500.00, 187500.00, 187500.00, 187500.00, 187500.00, 0.000, 0.000, 0.000, 03:02:49.427
85, 34540.13, 9085.98, 187500.00, 187500.00, 187500.00, 187500.00, 187500.00, 187500.00, 0.000, 0.000, 0.000, 03:02:49.427
86, 34543.88, 9085.16, 187500.00, 187500.00, 187500.00, 187500.00, 187500.00, 187500.00, 0.204, 0.500, -0.880, 03:02:49.427
87, 34524.41, 9065.98, 187500.00, 187500.00, 187500.00, 187500.00, 187500.00, 187500.00, 0.000, 0.000, 0.000, 03:02:49.427
88, 34510.71, 9055.25, 187500.00, 187500.00, 187500.00, 187500.00, 187500.00, 187500.00, 0.000, 0.000, 0.000, 03:02:49.427
89, 34535.86, 9079.50, 187500.00, 187500.00, 187500.00, 187500.00, 187500.00, 187500.00, 0.000, 0.000, 0.000, 03:02:49.427
90, 34544.57, 9087.30, 187500.00, 187500.00, 187500.00, 187500.00, 187500.00, 187500.00, 0.000, 0.000, 0.000, 03:02:49.428
91, 34531.16, 9064.26, 187500.00, 187500.00, 187500.00, 187500.00, 187500.00, 187500.00, 0.000, 0.000, 0.000, 03:02:49.428
92, 34507.16, 9036.74, 187500.00, 187500.00, 187500.00, 187500.00, 187500.00, 187500.00, 0.000, 0.000, 0.000, 03:02:49.428
93, 34526.98, 9055.76, 187500.00, 187500.00, 187500.00, 187500.00, 187500.00, 187500.00, 0.000, 0.000, 0.000, 03:02:49.428
94, 34535.88, 9077.80, 187500.00, 187500.00, 187500.00, 187500.00, 187500.00, 187500.00, 0.000, 0.000, 0.000, 03:02:49.428
95, 34523.23, 9082.65, 187500.00, 187500.00, 187500.00, 187500.00, 187500.00, 187500.00, 0.000, 0.000, 0.000, 03:02:49.428
96, 34497.19, 9041.88, 187500.00, 187500.00, 187500.00, 187500.00, 187500.00, 187500.00, 0.202, 0.502, -0.880, 03:02:49.428
97, 34516.79, 9022.95, 187500.00, 187500.00, 187500.00, 187500.00, 187500.00, 187500.00, 0.000, 0.000, 0.000, 03:02:49.428
98, 34546.95, 9095.59, 187500.00, 187500.00, 187500.00, 187500.00, 187500.00, 187500.00, 0.000, 0.000, 0.000, 03:02:49.428
99, 34530.14, 9099.69, 187500.00, 187500.00, 187500.00, 187500.00, 187500.00, 187500.00, 0.000, 0.000, 0.000, 03:02:49.428
100, 34508.30, 9056.59, 187500.00, 187500.00, 187500.00, 187500.00, 187500.00, 187500.00, 0.000, 0.000, 0.000, 03:02:49.428
101, 34525.57, 9069.17, 187500.00, 187500.00, 187500.00, 187500.00, 187500.00, 187500.00, 0.000, 0.000, 0.000, 03:02:49.429
102, 34541.54, 9078.41, 187500.00, 187500.00, 187500.00, 187500.00, 187500.00, 187500.00, 0.000, 0.000, 0.000, 03:02:49.429
103, 34530.61, 9067.72, 187500.00, 187500.00, 187500.00, 187500.00, 187500.00, 187500.00, 0.000, 0.000, 0.000, 03:02:49.429
104, 34504.41, 9059.30, 187500.00, 187500.00, 187500.00, 187500.00, 187500.00, 187500.00, 0.000, 0.000, 0.000, 03:02:49.429
105, 34513.19, 9055.34, 187500.00, 187500.00, 187500.00, 187500.00, 187500.00, 187500.00, 0.000, 0.000, 0.000, 03:02:49.429
106, 34542.65, 9086.56, 187500.00, 187500.00, 187500.00, 187500.00, 187500.00, 187500.00, 0.200, 0.502, -0.880, 03:02:49.429
107, 34543.93, 9074.54, 187500.00, 187500.00, 187500.00, 187500.00, 187500.00, 187500.00, 0.000, 0.000, 0.000, 03:02:49.429
108, 34522.94, 9064.62, 187500.00, 187500.00, 187500.00, 187500.00, 187500.00, 187500.00, 0.000, 0.000, 0.000, 03:02:49.429
109, 34530.14, 9062.72, 187500.00, 187500.00, 187500.00, 187500.00, 187500.00, 187500.00, 0.000, 0.000, 0.000, 03:02:49.429
110, 34545.43, 9064.97, 187500.00, 187500.00, 187500.00, 187500.00, 187500.00, 187500.00, 0.000, 0.000, 0.000, 03:02:49.429
111, 34531.54, 9065.26, 187500.00, 187500.00, 187500.00, 187500.00, 187500.00, 187500.00, 0.000, 0.000, 0.000, 03:02:49.430
112, 34517.55, 9050.40, 187500.00, 187500.00, 187500.00, 187500.00, 187500.00, 187500.00, 0.000, 0.000, 0.000, 03:02:49.430
113, 34509.64, 9035.78, 187500.00, 187500.00, 187500.00, 187500.00, 187500.00, 187500.00, 0.000, 0.000, 0.000, 03:02:49.430
114, 34534.76, 9082.38, 187500.00, 187500.00, 187500.00, 187500.00, 187500.00, 187500.00, 0.000, 0.000, 0.000, 03:02:49.430
115, 34538.74, 9088.38, 187500.00, 187500.00, 187500.00, 187500.00, 187500.00, 187500.00, 0.000, 0.000, 0.000, 03:02:49.430
116, 34521.26, 9058.04, 187500.00, 187500.00, 187500.00, 187500.00, 187500.00, 187500.00, 0.198, 0.500, -0.880, 03:02:49.430
117, 34503.43, 9025.25, 187500.00, 187500.00, 187500.00, 187500.00, 187500.00, 187500.00, 0.000, 0.000, 0.000, 03:02:49.430
118, 34524.01, 9047.94, 187500.00, 187500.00, 187500.00, 187500.00, 187500.00, 187500.00, 0.000, 0.000, 0.000, 03:02:49.430
119, 34542.70, 9079.64, 187500.00, 187500.00, 187500.00, 187500.00, 187500.00, 187500.00, 0.000, 0.000, 0.000, 03:02:49.430
120, 34534.29, 9079.95, 187500.00, 187500.00, 187500.00, 187500.00, 187500.00, 187500.00, 0.000, 0.000, 0.000, 03:02:49.430
121, 34507.92, 9055.83, 187500.00, 187500.00, 187500.00, 187500.00, 187500.00, 187500.00, 0.000, 0.000, 0.000, 03:02:49.892
122, 34524.70, 9042.69, 187500.00, 187500.00, 187500.00, 187500.00, 187500.00, 187500.00, 0.000, 0.000, 0.000, 03:02:49.893
123, 34543.03, 9070.07, 187500.00, 187500.00, 187500.00, 187500.00, 187500.00, 187500.00, 0.000, 0.000, 0.000, 03:02:49.893
124, 34537.60, 9080.24, 187500.00, 187500.00, 187500.00, 187500.00, 187500.00, 187500.00, 0.000, 0.000, 0.000, 03:02:49.893
125, 34522.00, 9064.59, 187500.00, 187500.00, 187500.00, 187500.00, 187500.00, 187500.00, 0.000, 0.000, 0.000, 03:02:49.893
126, 34535.63, 9066.22, 187500.00, 187500.00, 187500.00, 187500.00, 187500.00, 187500.00, 0.198, 0.498, -0.882, 03:02:49.893
127, 34559.08, 9070.99, 187500.00, 187500.00, 187500.00, 187500.00, 187500.00, 187500.00, 0.000, 0.000, 0.000, 03:02:49.893
128, 34550.52, 9066.16, 187500.00, 187500.00, 187500.00, 187500.00, 187500.00, 187500.00, 0.000, 0.000, 0.000, 03:02:49.893
129, 34520.86, 9054.42, 187500.00, 187500.00, 187500.00, 187500.00, 187500.00, 187500.00, 0.000, 0.000, 0.000, 03:02:49.893
130, 34515.38, 9058.63, 187500.00, 187500.00, 187500.00, 187500.00, 187500.00, 187500.00, 0.000, 0.000, 0.000, 03:02:49.893
131, 34544.53, 9075.34, 187500.00, 187500.00, 187500.00, 187500.00, 187500.00, 187500.00, 0.000, 0.000, 0.000, 03:02:49.894
132, 34529.82, 9052.63, 187500.00, 187500.00, 187500.00, 187500.00, 187500.00, 187500.00, 0.000, 0.000, 0.000, 03:02:49.894
133, 34515.65, 9039.63, 187500.00, 187500.00, 187500.00, 187500.00, 187500.00, 187500.00, 0.000, 0.000, 0.000, 03:02:49.894
134, 34520.73, 9054.27, 187500.00, 187500.00, 187500.00, 187500.00, 187500.00, 187500.00, 0.000, 0.000, 0.000, 03:02:49.894
135, 34542.47, 9063.48, 187500.00, 187500.00, 187500.00, 187500.00, 187500.00, 187500.00, 0.000, 0.000, 0.000, 03:02:49.894
136, 34543.97, 9069.91, 187500.00, 187500.00, 187500.00, 187500.00, 187500.00, 187500.00, 0.206, 0.498, -0.878, 03:02:49.894
137, 34523.68, 9050.85, 187500.00, 187500.00, 187500.00, 187500.00, 187500.00, 187500.00, 0.000, 0.000, 0.000, 03:02:49.894
138, 34508.86, 9047.85, 187500.00, 187500.00, 187500.00, 187500.00, 187500.00, 187500.00, 0.000, 0.000, 0.000, 03:02:49.895
139, 34538.27, 9048.57, 187500.00, 187500.00, 187500.00, 187500.00, 187500.00, 187500.00, 0.000, 0.000, 0.000, 03:02:49.895
140, 34545.13, 9078.14, 187500.00, 187500.00, 187500.00, 187500.00, 187500.00, 187500.00, 0.000, 0.000, 0.000, 03:02:49.895
141, 34533.09, 9085.74, 187500.00, 187500.00, 187500.00, 187500.00, 187500.00, 187500.00, 0.000, 0.000, 0.000, 03:02:49.895
142, 34514.80, 9037.95, 187500.00, 187500.00, 187500.00, 187500.00, 187500.00, 187500.00, 0.000, 0.000, 0.000, 03:02:49.895
143, 34536.66, 9066.90, 187500.00, 187500.00, 187500.00, 187500.00, 187500.00, 187500.00, 0.000, 0.000, 0.000, 03:02:49.895
144, 34542.92, 9069.47, 187500.00, 187500.00, 187500.00, 187500.00, 187500.00, 187500.00, 0.000, 0.000, 0.000, 03:02:49.895
145, 34534.94, 9071.30, 187500.00, 187500.00, 187500.00, 187500.00, 187500.00, 187500.00, 0.206, 0.498, -0.878, 03:02:49.896
146, 34514.98, 9045.26, 187500.00, 187500.00, 187500.00, 187500.00, 187500.00, 187500.00, 0.000, 0.000, 0.000, 03:02:49.896
147, 34529.93, 9042.69, 187500.00, 187500.00, 187500.00, 187500.00, 187500.00, 187500.00, 0.000, 0.000, 0.000, 03:02:49.896
148, 34552.84, 9076.33, 187500.00, 187500.00, 187500.00, 187500.00, 187500.00, 187500.00, 0.000, 0.000, 0.000, 03:02:49.896
149, 34552.98, 9067.92, 187500.00, 187500.00, 187500.00, 187500.00, 187500.00, 187500.00, 0.000, 0.000, 0.000, 03:02:49.896
150, 34524.46, 9054.62, 187500.00, 187500.00, 187500.00, 187500.00, 187500.00, 187500.00, 0.000, 0.000, 0.000, 03:02:49.896
151, 34527.68, 9061.02, 187500.00, 187500.00, 187500.00, 187500.00, 187500.00, 187500.00, 0.000, 0.000, 0.000, 03:02:49.898
152, 34550.75, 9077.29, 187500.00, 187500.00, 187500.00, 187500.00, 187500.00, 187500.00, 0.000, 0.000, 0.000, 03:02:49.898
153, 34541.96, 9053.75, 187500.00, 187500.00, 187500.00, 187500.00, 187500.00, 187500.00, 0.000, 0.000, 0.000, 03:02:49.898
154, 34517.37, 9042.67, 187500.00, 187500.00, 187500.00, 187500.00, 187500.00, 187500.00, 0.000, 0.000, 0.000, 03:02:49.898
155, 34515.27, 9043.60, 187500.00, 187500.00, 187500.00, 187500.00, 187500.00, 187500.00, 0.202, 0.498, -0.882, 03:02:49.898
156, 34546.77, 9073.20, 187500.00, 187500.00, 187500.00, 187500.00, 187500.00, 187500.00, 0.000, 0.000, 0.000, 03:02:49.899
157, 34554.43, 9082.00, 187500.00, 187500.00, 187500.00, 187500.00, 187500.00, 187500.00, 0.000, 0.000, 0.000, 03:02:49.899
158, 34528.21, 9056.84, 187500.00, 187500.00, 187500.00, 187500.00, 187500.00, 187500.00, 0.000, 0.000, 0.000, 03:02:49.899
159, 34516.39, 9045.44, 187500.00, 187500.00, 187500.00, 187500.00, 187500.00, 187500.00, 0.000, 0.000, 0.000, 03:02:49.899
160, 34553.09, 9048.57, 187500.00, 187500.00, 187500.00, 187500.00, 187500.00, 187500.00, 0.000, 0.000, 0.000, 03:02:49.899
161, 34556.27, 9098.50, 187500.00, 187500.00, 187500.00, 187500.00, 187500.00, 187500.00, 0.000, 0.000, 0.000, 03:02:49.899
162, 34540.29, 9083.17, 187500.00, 187500.00, 187500.00, 187500.00, 187500.00, 187500.00, 0.000, 0.000, 0.000, 03:02:49.899
163, 34521.39, 9054.96, 187500.00, 187500.00, 187500.00, 187500.00, 187500.00, 187500.00, 0.000, 0.000, 0.000, 03:02:49.899
164, 34539.59, 9066.63, 187500.00, 187500.00, 187500.00, 187500.00, 187500.00, 187500.00, 0.000, 0.000, 0.000, 03:02:49.900
165, 34550.43, 9090.92, 187500.00, 187500.00, 187500.00, 187500.00, 187500.00, 187500.00, 0.198, 0.498, -0.884, 03:02:49.900
166, 34549.87, 9070.29, 187500.00, 187500.00, 187500.00, 187500.00, 187500.00, 187500.00, 0.000, 0.000, 0.000, 03:02:49.900
167, 34513.53, 9022.80, 187500.00, 187500.00, 187500.00, 187500.00, 187500.00, 187500.00, 0.000, 0.000, 0.000, 03:02:49.900
168, 34539.99, 9070.72, 187500.00, 187500.00, 187500.00, 187500.00, 187500.00, 187500.00, 0.000, 0.000, 0.000, 03:02:49.900
169, 34554.99, 9097.14, 187500.00, 187500.00, 187500.00, 187500.00, 187500.00, 187500.00, 0.000, 0.000, 0.000, 03:02:49.900
170, 34539.46, 9078.76, 187500.00, 187500.00, 187500.00, 187500.00, 187500.00, 187500.00, 0.000, 0.000, 0.000, 03:02:49.900
171, 34518.34, 9058.78, 187500.00, 187500.00, 187500.00, 187500.00, 187500.00, 187500.00, 0.000, 0.000, 0.000, 03:02:49.900
172, 34536.44, 9065.15, 187500.00, 187500.00, 187500.00, 187500.00, 187500.00, 187500.00, 0.000, 0.000, 0.000, 03:02:49.901
173, 34555.86, 9082.59, 187500.00, 187500.00, 187500.00, 187500.00, 187500.00, 187500.00, 0.000, 0.000, 0.000, 03:02:49.901
174, 34544.26, 9060.64, 187500.00, 187500.00, 187500.00, 187500.00, 187500.00, 187500.00, 0.000, 0.000, 0.000, 03:02:49.901
175, 34518.54, 9031.76, 187500.00, 187500.00, 187500.00, 187500.00, 187500.00, 187500.00, 0.198, 0.496, -0.880, 03:02:49.901
176, 34533.22, 9074.74, 187500.00, 187500.00, 187500.00, 187500.00, 187500.00, 187500.00, 0.000, 0.000, 0.000, 03:02:49.901
177, 34549.71, 9105.74, 187500.00, 187500.00, 187500.00, 187500.00, 187500.00, 187500.00, 0.000, 0.000, 0.000, 03:02:49.901
178, 34547.44, 9089.47, 187500.00, 187500.00, 187500.00, 187500.00, 187500.00, 187500.00, 0.000, 0.000, 0.000, 03:02:49.901
179, 34532.62, 9070.07, 187500.00, 187500.00, 187500.00, 187500.00, 187500.00, 187500.00, 0.000, 0.000, 0.000, 03:02:49.901
180, 34520.28, 9064.62, 187500.00, 187500.00, 187500.00, 187500.00, 187500.00, 187500.00, 0.000, 0.000, 0.000, 03:02:49.901
181, 34545.83, 9083.15, 187500.00, 187500.00, 187500.00, 187500.00, 187500.00, 187500.00, 0.000, 0.000, 0.000, 03:02:49.901
182, 34544.91, 9077.92, 187500.00, 187500.00, 187500.00, 187500.00, 187500.00, 187500.00, 0.000, 0.000, 0.000, 03:02:49.902
183, 34523.57, 9067.03, 187500.00, 187500.00, 187500.00, 187500.00, 187500.00, 187500.00, 0.000, 0.000, 0.000, 03:02:49.902
184, 34514.87, 9058.18, 187500.00, 187500.00, 187500.00, 187500.00, 187500.00, 187500.00, 0.000, 0.000, 0.000, 03:02:49.902
185, 34552.62, 9092.15, 187500.00, 187500.00, 187500.00, 187500.00, 187500.00, 187500.00, 0.200, 0.494, -0.880, 03:02:49.902
186, 34550.32, 9085.94, 187500.00, 187500.00, 187500.00, 187500.00, 187500.00, 187500.00, 0.000, 0.000, 0.000, 03:02:49.902
187, 34527.21, 9058.94, 187500.00, 187500.00, 187500.00, 187500.00, 187500.00, 187500.00, 0.000, 0.000, 0.000, 03:02:49.902
188, 34515.43, 9071.39, 187500.00, 187500.00, 187500.00, 187500.00, 187500.00, 187500.00, 0.000, 0.000, 0.000, 03:02:49.902
189, 34550.39, 9099.10, 187500.00, 187500.00, 187500.00, 187500.00, 187500.00, 187500.00, 0.000, 0.000, 0.000, 03:02:49.902
190, 34558.10, 9099.46, 187500.00, 187500.00, 187500.00, 187500.00, 187500.00, 187500.00, 0.000, 0.000, 0.000, 03:02:49.902
191, 34543.50, 9073.76, 187500.00, 187500.00, 187500.00, 187500.00, 187500.00, 187500.00, 0.000, 0.000, 0.000, 03:02:49.902
192, 34518.16, 9058.36, 187500.00, 187500.00, 187500.00, 187500.00, 187500.00, 187500.00, 0.000, 0.000, 0.000, 03:02:49.902
193, 34542.12, 9077.60, 187500.00, 187500.00, 187500.00, 187500.00, 187500.00, 187500.00, 0.000, 0.000, 0.000, 03:02:49.903
194, 34556.20, 9095.08, 187500.00, 187500.00, 187500.00, 187500.00, 187500.00, 187500.00, 0.000, 0.000, 0.000, 03:02:49.903
195, 34543.68, 9095.51, 187500.00, 187500.00, 187500.00, 187500.00, 187500.00, 187500.00, 0.200, 0.494, -0.878, 03:02:49.903
196, 34520.14, 9067.16, 187500.00, 187500.00, 187500.00, 187500.00, 187500.00, 187500.00, 0.000, 0.000, 0.000, 03:02:49.903
197, 34526.87, 9061.08, 187500.00, 187500.00, 187500.00, 187500.00, 187500.00, 187500.00, 0.000, 0.000, 0.000, 03:02:49.903
198, 34548.06, 9107.40, 187500.00, 187500.00, 187500.00, 187500.00, 187500.00, 187500.00, 0.000, 0.000, 0.000, 03:02:49.903
199, 34545.34, 9095.42, 187500.00, 187500.00, 187500.00, 187500.00, 187500.00, 187500.00, 0.000, 0.000, 0.000, 03:02:49.903
200, 34524.39, 9073.80, 187500.00, 187500.00, 187500.00, 187500.00, 187500.00, 187500.00, 0.000, 0.000, 0.000, 03:02:49.903
201, 34536.89, 9088.40, 187500.00, 187500.00, 187500.00, 187500.00, 187500.00, 187500.00, 0.000, 0.000, 0.000, 03:02:49.903
202, 34561.38, 9102.73, 187500.00, 187500.00, 187500.00, 187500.00, 187500.00, 187500.00, 0.000, 0.000, 0.000, 03:02:49.904
203, 34543.48, 9092.24, 187500.00, 187500.00, 187500.00, 187500.00, 187500.00, 187500.00, 0.000, 0.000, 0.000, 03:02:49.904
204, 34519.90, 9070.85, 187500.00, 187500.00, 187500.00, 187500.00, 187500.00, 187500.00, 0.202, 0.492, -0.880, 03:02:49.904
205, 34508.70, 9054.67, 187500.00, 187500.00, 187500.00, 187500.00, 187500.00, 187500.00, 0.000, 0.000, 0.000, 03:02:49.904
206, 34538.43, 9084.26, 187500.00, 187500.00, 187500.00, 187500.00, 187500.00, 187500.00, 0.000, 0.000, 0.000, 03:02:49.904
207, 34537.33, 9080.73, 187500.00, 187500.00, 187500.00, 187500.00, 187500.00, 187500.00, 0.000, 0.000, 0.000, 03:02:49.904
208, 34508.86, 9064.93, 187500.00, 187500.00, 187500.00, 187500.00, 187500.00, 187500.00, 0.000, 0.000, 0.000, 03:02:49.904
209, 34501.79, 9044.03, 187500.00, 187500.00, 187500.00, 187500.00, 187500.00, 187500.00, 0.000, 0.000, 0.000, 03:02:49.905
210, 34529.04, 9086.39, 187500.00, 187500.00, 187500.00, 187500.00, 187500.00, 187500.00, 0.000, 0.000, 0.000, 03:02:49.905
211, 34534.96, 9099.62, 187500.00, 187500.00, 187500.00, 187500.00, 187500.00, 187500.00, 0.000, 0.000, 0.000, 03:02:49.905
212, 34525.69, 9073.76, 187500.00, 187500.00, 187500.00, 187500.00, 187500.00, 187500.00, 0.000, 0.000, 0.000, 03:02:49.905
213, 34503.78, 9028.83, 187500.00, 187500.00, 187500.00, 187500.00, 187500.00, 187500.00, 0.000, 0.000, 0.000, 03:02:49.905
214, 34531.05, 9050.82, 187500.00, 187500.00, 187500.00, 187500.00, 187500.00, 187500.00, 0.196, 0.492, -0.882, 03:02:49.905
215, 34549.16, 9093.87, 187500.00, 187500.00, 187500.00, 187500.00, 187500.00, 187500.00, 0.000, 0.000, 0.000, 03:02:49.905
216, 34533.31, 9089.18, 187500.00, 187500.00, 187500.00, 187500.00, 187500.00, 187500.00, 0.000, 0.000, 0.000, 03:02:49.905
217, 34507.98, 9052.01, 187500.00, 187500.00, 187500.00, 187500.00, 187500.00, 187500.00, 0.000, 0.000, 0.000, 03:02:49.905
218, 34526.00, 9090.05, 187500.00, 187500.00, 187500.00, 187500.00, 187500.00, 187500.00, 0.000, 0.000, 0.000, 03:02:49.905
219, 34540.73, 9098.28, 187500.00, 187500.00, 187500.00, 187500.00, 187500.00, 187500.00, 0.000, 0.000, 0.000, 03:02:49.906
220, 34544.60, 9091.24, 187500.00, 187500.00, 187500.00, 187500.00, 187500.00, 187500.00, 0.000, 0.000, 0.000, 03:02:49.906
221, 34515.59, 9074.36, 187500.00, 187500.00, 187500.00, 187500.00, 187500.00, 187500.00, 0.000, 0.000, 0.000, 03:02:49.906
222, 34518.16, 9071.99, 187500.00, 187500.00, 187500.00, 187500.00, 187500.00, 187500.00, 0.000, 0.000, 0.000, 03:02:49.906
223, 34543.46, 9091.44, 187500.00, 187500.00, 187500.00, 187500.00, 187500.00, 187500.00, 0.000, 0.000, 0.000, 03:02:49.906
224, 34539.86, 9092.78, 187500.00, 187500.00, 187500.00, 187500.00, 187500.00, 187500.00, 0.200, 0.490, -0.880, 03:02:49.906
225, 34519.27, 9059.90, 187500.00, 187500.00, 187500.00, 187500.00, 187500.00, 187500.00, 0.000, 0.000, 0.000, 03:02:49.906
226, 34521.84, 9070.45, 187500.00, 187500.00, 187500.00, 187500.00, 187500.00, 187500.00, 0.000, 0.000, 0.000, 03:02:49.906
227, 34546.03, 9091.66, 187500.00, 187500.00, 187500.00, 187500.00, 187500.00, 187500.00, 0.000, 0.000, 0.000, 03:02:49.906
228, 34543.59, 9093.58, 187500.00, 187500.00, 187500.00, 187500.00, 187500.00, 187500.00, 0.000, 0.000, 0.000, 03:02:49.907
229, 34528.88, 9090.70, 187500.00, 187500.00, 187500.00, 187500.00, 187500.00, 187500.00, 0.000, 0.000, 0.000, 03:02:49.907
230, 34512.72, 9064.15, 187500.00, 187500.00, 187500.00, 187500.00, 187500.00, 187500.00, 0.000, 0.000, 0.000, 03:02:49.907
231, 34537.71, 9080.62, 187500.00, 187500.00, 187500.00, 187500.00, 187500.00, 187500.00, 0.000, 0.000, 0.000, 03:02:49.907
232, 34539.77, 9075.34, 187500.00, 187500.00, 187500.00, 187500.00, 187500.00, 187500.00, 0.000, 0.000, 0.000, 03:02:49.907
233, 34523.83, 9076.31, 187500.00, 187500.00, 187500.00, 187500.00, 187500.00, 187500.00, 0.000, 0.000, 0.000, 03:02:49.907
234, 34516.41, 9061.26, 187500.00, 187500.00, 187500.00, 187500.00, 187500.00, 187500.00, 0.200, 0.490, -0.872, 03:02:49.907
235, 34545.43, 9071.72, 187500.00, 187500.00, 187500.00, 187500.00, 187500.00, 187500.00, 0.000, 0.000, 0.000, 03:02:49.907
236, 34554.28, 9092.15, 187500.00, 187500.00, 187500.00, 187500.00, 187500.00, 187500.00, 0.000, 0.000, 0.000, 03:02:49.907
237, 34542.59, 9087.28, 187500.00, 187500.00, 187500.00, 187500.00, 187500.00, 187500.00, 0.000, 0.000, 0.000, 03:02:49.908
238, 34512.19, 9059.12, 187500.00, 187500.00, 187500.00, 187500.00, 187500.00, 187500.00, 0.000, 0.000, 0.000, 03:02:49.908
239, 34533.60, 9066.74, 187500.00, 187500.00, 187500.00, 187500.00, 187500.00, 187500.00, 0.000, 0.000, 0.000, 03:02:49.908
240, 34540.55, 9071.10, 187500.00, 187500.00, 187500.00, 187500.00, 187500.00, 187500.00, 0.000, 0.000, 0.000, 03:02:49.908
241, 34531.79, 9104.87, 187500.00, 187500.00, 187500.00, 187500.00, 187500.00, 187500.00, 0.000, 0.000, 0.000, 03:02:50.372
242, 34505.55, 9070.96, 187500.00, 187500.00, 187500.00, 187500.00, 187500.00, 187500.00, 0.000, 0.000, 0.000, 03:02:50.372
243, 34530.29, 9078.29, 187500.00, 187500.00, 187500.00, 187500.00, 187500.00, 187500.00, 0.000, 0.000, 0.000, 03:02:50.372
244, 34549.56, 9098.34, 187500.00, 187500.00, 187500.00, 187500.00, 187500.00, 187500.00, 0.196, 0.494, -0.880, 03:02:50.372
245, 34531.75, 9076.17, 187500.00, 187500.00, 187500.00, 187500.00, 187500.00, 187500.00, 0.000, 0.000, 0.000, 03:02:50.373
246, 34512.99, 9070.29, 187500.00, 187500.00, 187500.00, 187500.00, 187500.00, 187500.00, 0.000, 0.000, 0.000, 03:02:50.373
247, 34525.84, 9078.05, 187500.00, 187500.00, 187500.00, 187500.00, 187500.00, 187500.00, 0.000, 0.000, 0.000, 03:02:50.373
248, 34542.92, 9090.77, 187500.00, 187500.00, 187500.00, 187500.00, 187500.00, 187500.00, 0.000, 0.000, 0.000, 03:02:50.373
249, 34534.18, 9085.94, 187500.00, 187500.00, 187500.00, 187500.00, 187500.00, 187500.00, 0.000, 0.000, 0.000, 03:02:50.373
250, 34508.95, 9059.27, 187500.00, 187500.00, 187500.00, 187500.00, 187500.00, 187500.00, 0.000, 0.000, 0.000, 03:02:50.373
251, 34514.36, 9057.51, 187500.00, 187500.00, 187500.00, 187500.00, 187500.00, 187500.00, 0.000, 0.000, 0.000, 03:02:50.373
252, 34538.70, 9075.79, 187500.00, 187500.00, 187500.00, 187500.00, 187500.00, 187500.00, 0.000, 0.000, 0.000, 03:02:50.373
253, 34533.40, 9076.66, 187500.00, 187500.00, 187500.00, 187500.00, 187500.00, 187500.00, 0.000, 0.000, 0.000, 03:02:50.373
254, 34521.38, 9079.28, 187500.00, 187500.00, 187500.00, 187500.00, 187500.00, 187500.00, 0.196, 0.498, -0.884, 03:02:50.373
255, 34515.72, 9052.66, 187500.00, 187500.00, 187500.00, 187500.00, 187500.00, 187500.00, 0.000, 0.000, 0.000, 03:02:50.374
0, 34543.03, 9068.66, 187500.00, 187500.00, 187500.00, 187500.00, 187500.00, 187500.00, 0.000, 0.000, 0.000, 03:02:50.374
1, 34541.13, 9114.15, 187500.00, 187500.00, 187500.00, 187500.00, 187500.00, 187500.00, 0.000, 0.000, 0.000, 03:02:50.374
2, 34529.24, 9083.03, 187500.00, 187500.00, 187500.00, 187500.00, 187500.00, 187500.00, 0.000, 0.000, 0.000, 03:02:50.374
3, 34509.08, 9049.64, 187500.00, 187500.00, 187500.00, 187500.00, 187500.00, 187500.00, 0.000, 0.000, 0.000, 03:02:50.374
4, 34524.70, 9062.42, 187500.00, 187500.00, 187500.00, 187500.00, 187500.00, 187500.00, 0.000, 0.000, 0.000, 03:02:50.374
5, 34533.58, 9066.78, 187500.00, 187500.00, 187500.00, 187500.00, 187500.00, 187500.00, 0.000, 0.000, 0.000, 03:02:50.374
6, 34526.76, 9081.04, 187500.00, 187500.00, 187500.00, 187500.00, 187500.00, 187500.00, 0.000, 0.000, 0.000, 03:02:50.375
7, 34505.77, 9075.23, 187500.00, 187500.00, 187500.00, 187500.00, 187500.00, 187500.00, 0.202, 0.498, -0.878, 03:02:50.375
8, 34523.18, 9084.82, 187500.00, 187500.00, 187500.00, 187500.00, 187500.00, 187500.00, 0.000, 0.000, 0.000, 03:02:50.375
9, 34535.99, 9096.96, 187500.00, 187500.00, 187500.00, 187500.00, 187500.00, 187500.00, 0.000, 0.000, 0.000, 03:02:50.375
10, 34516.77, 9056.55, 187500.00, 187500.00, 187500.00, 187500.00, 187500.00, 187500.00, 0.000, 0.000, 0.000, 03:02:50.375
11, 34499.29, 9048.54, 187500.00, 187500.00, 187500.00, 187500.00, 187500.00, 187500.00, 0.000, 0.000, 0.000, 03:02:50.375
12, 34509.04, 9066.52, 187500.00, 187500.00, 187500.00, 187500.00, 187500.00, 187500.00, 0.000, 0.000, 0.000, 03:02:50.375
13, 34522.04, 9059.97, 187500.00, 187500.00, 187500.00, 187500.00, 187500.00, 187500.00, 0.000, 0.000, 0.000, 03:02:50.376
14, 34522.04, 9059.45, 187500.00, 187500.00, 187500.00, 187500.00, 187500.00, 187500.00, 0.000, 0.000, 0.000, 03:02:50.376
15, 34497.41, 9046.29, 187500.00, 187500.00, 187500.00, 187500.00, 187500.00, 187500.00, 0.000, 0.000, 0.000, 03:02:50.376
16, 34508.93, 9067.39, 187500.00, 187500.00, 187500.00, 187500.00, 187500.00, 187500.00, 0.000, 0.000, 0.000, 03:02:50.376
17, 34529.04, 9089.65, 187500.00, 187500.00, 187500.00, 187500.00, 187500.00, 187500.00, 0.208, 0.498, -0.874, 03:02:50.376
18, 34522.34, 9075.50, 187500.00, 187500.00, 187500.00, 187500.00, 187500.00, 187500.00, 0.000, 0.000, 0.000, 03:02:50.376
19, 34508.39, 9054.69, 187500.00, 187500.00, 187500.00, 187500.00, 187500.00, 187500.00, 0.000, 0.000, 0.000, 03:02:50.376
20, 34513.13, 9052.43, 187500.00, 187500.00, 187500.00, 187500.00, 187500.00, 187500.00, 0.000, 0.000, 0.000, 03:02:50.376
21, 34531.03, 9075.12, 187500.00, 187500.00, 187500.00, 187500.00, 187500.00, 187500.00, 0.000, 0.000, 0.000, 03:02:50.377
22, 34533.85, 9086.39, 187500.00, 187500.00, 187500.00, 187500.00, 187500.00, 187500.00, 0.000, 0.000, 0.000, 03:02:50.377
23, 34516.57, 9063.39, 187500.00, 187500.00, 187500.00, 187500.00, 187500.00, 187500.00, 0.000, 0.000, 0.000, 03:02:50.377
24, 34505.62, 9056.21, 187500.00, 187500.00, 187500.00, 187500.00, 187500.00, 187500.00, 0.000, 0.000, 0.000, 03:02:50.377
25, 34529.78, 9068.19, 187500.00, 187500.00, 187500.00, 187500.00, 187500.00, 187500.00, 0.000, 0.000, 0.000, 03:02:50.377
26, 34532.91, 9083.12, 187500.00, 187500.00, 187500.00, 187500.00, 187500.00, 187500.00, 0.000, 0.000, 0.000, 03:02:50.377
27, 34518.78, 9072.30, 187500.00, 187500.00, 187500.00, 187500.00, 187500.00, 187500.00, 0.202, 0.506, -0.874, 03:02:50.377
28, 34503.80, 9048.08, 187500.00, 187500.00, 187500.00, 187500.00, 187500.00, 187500.00, 0.000, 0.000, 0.000, 03:02:50.378
29, 34533.42, 9048.03, 187500.00, 187500.00, 187500.00, 187500.00, 187500.00, 187500.00, 0.000, 0.000, 0.000, 03:02:50.378
30, 34536.04, 9035.00, 187500.00, 187500.00, 187500.00, 187500.00, 187500.00, 187500.00, 0.000, 0.000, 0.000, 03:02:50.378
31, 34522.96, 9097.16, 187500.00, 187500.00, 187500.00, 187500.00, 187500.00, 187500.00, 0.000, 0.000, 0.000, 03:02:50.378
32, 34497.55, 9088.33, 187500.00, 187500.00, 187500.00, 187500.00, 187500.00, 187500.00, 0.000, 0.000, 0.000, 03:02:50.378
33, 34519.50, 9092.71, 187500.00, 187500.00, 187500.00, 187500.00, 187500.00, 187500.00, 0.000, 0.000, 0.000, 03:02:50.378
34, 34533.22, 9090.19, 187500.00, 187500.00, 187500.00, 187500.00, 187500.00, 187500.00, 0.000, 0.000, 0.000, 03:02:50.378
35, 34525.42, 9078.85, 187500.00, 187500.00, 187500.00, 187500.00, 187500.00, 187500.00, 0.000, 0.000, 0.000, 03:02:50.378
36, 34504.36, 9055.38, 187500.00, 187500.00, 187500.00, 187500.00, 187500.00, 187500.00, 0.000, 0.000, 0.000, 03:02:50.378
37, 34515.99, 9068.06, 187500.00, 187500.00, 187500.00, 187500.00, 187500.00, 187500.00, 0.202, 0.500, -0.876, 03:02:50.379
38, 34537.54, 9084.15, 187500.00, 187500.00, 187500.00, 187500.00, 187500.00, 187500.00, 0.000, 0.000, 0.000, 03:02:50.379
39, 34533.18, 9065.33, 187500.00, 187500.00, 187500.00, 187500.00, 187500.00, 187500.00, 0.000, 0.000, 0.000, 03:02:50.379
40, 34501.41, 9041.37, 187500.00, 187500.00, 187500.00, 187500.00, 187500.00, 187500.00, 0.000, 0.000, 0.000, 03:02:50.379
41, 34513.51, 9059.18, 187500.00, 187500.00, 187500.00, 187500.00, 187500.00, 187500.00, 0.000, 0.000, 0.000, 03:02:50.379
42, 34548.06, 9083.93, 187500.00, 187500.00, 187500.00, 187500.00, 187500.00, 187500.00, 0.000, 0.000, 0.000, 03:02:50.379
43, 34531.03, 9067.68, 187500.00, 187500.00, 187500.00, 187500.00, 187500.00, 187500.00, 0.000, 0.000, 0.000, 03:02:50.379
44, 34513.21, 9063.48, 187500.00, 187500.00, 187500.00, 187500.00, 187500.00, 187500.00, 0.000, 0.000, 0.000, 03:02:50.379
45, 34516.77, 9071.32, 187500.00, 187500.00, 187500.00, 187500.00, 187500.00, 187500.00, 0.000, 0.000, 0.000, 03:02:50.380
46, 34536.51, 9094.61, 187500.00, 187500.00, 187500.00, 187500.00, 187500.00, 187500.00, 0.000, 0.000, 0.000, 03:02:50.380
47, 34530.72, 9066.87, 187500.00, 187500.00, 187500.00, 187500.00, 187500.00, 187500.00, 0.200, 0.500, -0.882, 03:02:50.380
48, 34510.98, 9049.39, 187500.00, 187500.00, 187500.00, 187500.00, 187500.00, 187500.00, 0.000, 0.000, 0.000, 03:02:50.380
49, 34503.58, 9040.34, 187500.00, 187500.00, 187500.00, 187500.00, 187500.00, 187500.00, 0.000, 0.000, 0.000, 03:02:50.380
50, 34529.49, 9069.76, 187500.00, 187500.00, 187500.00, 187500.00, 187500.00, 187500.00, 0.000, 0.000, 0.000, 03:02:50.380
51, 34536.42, 9092.42, 187500.00, 187500.00, 187500.00, 187500.00, 187500.00, 187500.00, 0.000, 0.000, 0.000, 03:02:50.380
52, 34521.51, 9069.47, 187500.00, 187500.00, 187500.00, 187500.00, 187500.00, 187500.00, 0.000, 0.000, 0.000, 03:02:50.380
53, 34499.25, 9050.85, 187500.00, 187500.00, 187500.00, 187500.00, 187500.00, 187500.00, 0.000, 0.000, 0.000, 03:02:50.380
54, 34523.45, 9072.08, 187500.00, 187500.00, 187500.00, 187500.00, 187500.00, 187500.00, 0.000, 0.000, 0.000, 03:02:50.380
55, 34541.51, 9100.85, 187500.00, 187500.00, 187500.00, 187500.00, 187500.00, 187500.00, 0.000, 0.000, 0.000, 03:02:50.381
56, 34529.78, 9088.76, 187500.00, 187500.00, 187500.00, 187500.00, 187500.00, 187500.00, 0.000, 0.000, 0.000, 03:02:50.381
57, 34499.09, 9044.01, 187500.00, 187500.00, 187500.00, 187500.00, 187500.00, 187500.00, 0.202, 0.496, -0.874, 03:02:50.381
58, 34520.50, 9046.96, 187500.00, 187500.00, 187500.00, 187500.00, 187500.00, 187500.00, 0.000, 0.000, 0.000, 03:02:50.381
59, 34536.08, 9072.91, 187500.00, 187500.00, 187500.00, 187500.00, 187500.00, 187500.00, 0.000, 0.000, 0.000, 03:02:50.381
60, 34522.11, 9076.57, 187500.00, 187500.00, 187500.00, 187500.00, 187500.00, 187500.00, 0.000, 0.000, 0.000, 03:02:50.381
61, 34496.74, 9050.80, 187500.00, 187500.00, 187500.00, 187500.00, 187500.00, 187500.00, 0.000, 0.000, 0.000, 03:02:50.381
62, 34515.88, 9062.89, 187500.00, 187500.00, 187500.00, 187500.00, 187500.00, 187500.00, 0.000, 0.000, 0.000, 03:02:50.381
63, 34540.26, 9078.05, 187500.00, 187500.00, 187500.00, 187500.00, 187500.00, 187500.00, 0.000, 0.000, 0.000, 03:02:50.381
64, 34535.28, 9081.98, 187500.00, 187500.00, 187500.00, 187500.00, 187500.00, 187500.00, 0.000, 0.000, 0.000, 03:02:50.381
65, 34508.37, 9063.34, 187500.00, 187500.00, 187500.00, 187500.00, 187500.00, 187500.00, 0.000, 0.000, 0.000, 03:02:50.382
66, 34506.91, 9049.19, 187500.00, 187500.00, 187500.00, 187500.00, 187500.00, 187500.00, 0.000, 0.000, 0.000, 03:02:50.382
67, 34533.71, 9072.64, 187500.00, 187500.00, 187500.00, 187500.00, 187500.00, 187500.00, 0.202, 0.498, -0.874, 03:02:50.382
68, 34525.57, 9074.63, 187500.00, 187500.00, 187500.00, 187500.00, 187500.00, 187500.00, 0.000, 0.000, 0.000, 03:02:50.384
69, 34508.34, 9051.65, 187500.00, 187500.00, 187500.00, 187500.00, 187500.00, 187500.00, 0.000, 0.000, 0.000, 03:02:50.384
70, 34502.13, 9035.09, 187500.00, 187500.00, 187500.00, 187500.00, 187500.00, 187500.00, 0.000, 0.000, 0.000, 03:02:50.384
71, 34533.36, 9071.81, 187500.00, 187500.00, 187500.00, 187500.00, 187500.00, 187500.00, 0.000, 0.000, 0.000, 03:02:50.384
72, 34534.32, 9091.21, 187500.00, 187500.00, 187500.00, 187500.00, 187500.00, 187500.00, 0.000, 0.000, 0.000, 03:02:50.384
73, 34516.97, 9073.60, 187500.00, 187500.00, 187500.00, 187500.00, 187500.00, 187500.00, 0.000, 0.000, 0.000, 03:02:50.384
74, 34514.20, 9061.82, 187500.00, 187500.00, 187500.00, 187500.00, 187500.00, 187500.00, 0.000, 0.000, 0.000, 03:02:50.385
75, 34537.31, 9060.68, 187500.00, 187500.00, 187500.00, 187500.00, 187500.00, 187500.00, 0.000, 0.000, 0.000, 03:02:50.385
76, 34537.22, 9071.66, 187500.00, 187500.00, 187500.00, 187500.00, 187500.00, 187500.00, 0.202, 0.500, -0.872, 03:02:50.385
77, 34524.35, 9062.13, 187500.00, 187500.00, 187500.00, 187500.00, 187500.00, 187500.00, 0.000, 0.000, 0.000, 03:02:50.385
78, 34506.09, 9064.71, 187500.00, 187500.00, 187500.00, 187500.00, 187500.00, 187500.00, 0.000, 0.000, 0.000, 03:02:50.385
79, 34531.63, 9075.46, 187500.00, 187500.00, 187500.00, 187500.00, 187500.00, 187500.00, 0.000, 0.000, 0.000, 03:02:50.385
80, 34540.26, 9075.99, 187500.00, 187500.00, 187500.00, 187500.00, 187500.00, 187500.00, 0.000, 0.000, 0.000, 03:02:50.385
81, 34523.39, 9049.77, 187500.00, 187500.00, 187500.00, 187500.00, 187500.00, 187500.00, 0.000, 0.000, 0.000, 03:02:50.385
82, 34508.77, 9044.92, 187500.00, 187500.00, 187500.00, 187500.00, 187500.00, 187500.00, 0.000, 0.000, 0.000, 03:02:50.385
83, 34535.39, 9066.85, 187500.00, 187500.00, 187500.00, 187500.00, 187500.00, 187500.00, 0.000, 0.000, 0.000, 03:02:50.385
84, 34547.14, 9063.88, 187500.00, 187500.00, 187500.00, 187500.00, 187500.00, 187500.00, 0.000, 0.000, 0.000, 03:02:50.385
85, 34528.79, 9042.84, 187500.00, 187500.00, 187500.00, 187500.00, 187500.00, 187500.00, 0.000, 0.000, 0.000, 03:02:50.386
86, 34497.21, 9037.88, 187500.00, 187500.00, 187500.00, 187500.00, 187500.00, 187500.00, 0.206, 0.500, -0.874, 03:02:50.386
87, 34518.29, 9044.14, 187500.00, 187500.00, 187500.00, 187500.00, 187500.00, 187500.00, 0.000, 0.000, 0.000, 03:02:50.386
88, 34550.92, 9079.95, 187500.00, 187500.00, 187500.00, 187500.00, 187500.00, 187500.00, 0.000, 0.000, 0.000, 03:02:50.386
89, 34544.44, 9096.58, 187500.00, 187500.00, 187500.00, 187500.00, 187500.00, 187500.00, 0.000, 0.000, 0.000, 03:02:50.386
90, 34526.02, 9068.62, 187500.00, 187500.00, 187500.00, 187500.00, 187500.00, 187500.00, 0.000, 0.000, 0.000, 03:02:50.386
91, 34528.95, 9052.21, 187500.00, 187500.00, 187500.00, 187500.00, 187500.00, 187500.00, 0.000, 0.000, 0.000, 03:02:50.386
92, 34552.64, 9087.93, 187500.00, 187500.00, 187500.00, 187500.00, 187500.00, 187500.00, 0.000, 0.000, 0.000, 03:02:50.386
93, 34545.43, 9088.71, 187500.00, 187500.00, 187500.00, 187500.00, 187500.00, 187500.00, 0.000, 0.000, 0.000, 03:02:50.386
94, 34521.78, 9060.41, 187500.00, 187500.00, 187500.00, 187500.00, 187500.00, 187500.00, 0.000, 0.000, 0.000, 03:02:50.386
95, 34523.07, 9049.10, 187500.00, 187500.00, 187500.00, 187500.00, 187500.00, 187500.00, 0.000, 0.000, 0.000, 03:02:50.386
96, 34545.69, 9056.14, 187500.00, 187500.00, 187500.00, 187500.00, 187500.00, 187500.00, 0.198, 0.502, -0.872, 03:02:50.387
97, 34537.29, 9061.13, 187500.00, 187500.00, 187500.00, 187500.00, 187500.00, 187500.00, 0.000, 0.000, 0.000, 03:02:50.387
98, 34528.55, 9053.26, 187500.00, 187500.00, 187500.00, 187500.00, 187500.00, 187500.00, 0.000, 0.000, 0.000, 03:02:50.387
99, 34516.30, 9058.22, 187500.00, 187500.00, 187500.00, 187500.00, 187500.00, 187500.00, 0.000, 0.000, 0.000, 03:02:50.387
100, 34547.35, 9077.85, 187500.00, 187500.00, 187500.00, 187500.00, 187500.00, 187500.00, 0.000, 0.000, 0.000, 03:02:50.387
101, 34550.34, 9084.11, 187500.00, 187500.00, 187500.00, 187500.00, 187500.00, 187500.00, 0.000, 0.000, 0.000, 03:02:50.387
102, 34535.43, 9066.16, 187500.00, 187500.00, 187500.00, 187500.00, 187500.00, 187500.00, 0.000, 0.000, 0.000, 03:02:50.387
103, 34514.24, 9036.16, 187500.00, 187500.00, 187500.00, 187500.00, 187500.00, 187500.00, 0.000, 0.000, 0.000, 03:02:50.387
104, 34533.98, 9046.15, 187500.00, 187500.00, 187500.00, 187500.00, 187500.00, 187500.00, 0.000, 0.000, 0.000, 03:02:50.388
105, 34546.34, 9051.92, 187500.00, 187500.00, 187500.00, 187500.00, 187500.00, 187500.00, 0.000, 0.000, 0.000, 03:02:50.853
106, 34542.74, 9095.51, 187500.00, 187500.00, 187500.00, 187500.00, 187500.00, 187500.00, 0.196, 0.498, -0.872, 03:02:50.853
107, 34525.09, 9074.23, 187500.00, 187500.00, 187500.00, 187500.00, 187500.00, 187500.00, 0.000, 0.000, 0.000, 03:02:50.853
108, 34539.61, 9059.74, 187500.00, 187500.00, 187500.00, 187500.00, 187500.00, 187500.00, 0.000, 0.000, 0.000, 03:02:50.853
109, 34551.73, 9070.38, 187500.00, 187500.00, 187500.00, 187500.00, 187500.00, 187500.00, 0.000, 0.000, 0.000, 03:02:50.853
110, 34548.89, 9077.11, 187500.00, 187500.00, 187500.00, 187500.00, 187500.00, 187500.00, 0.000, 0.000, 0.000, 03:02:50.853
111, 34521.15, 9051.18, 187500.00, 187500.00, 187500.00, 187500.00, 187500.00, 187500.00, 0.000, 0.000, 0.000, 03:02:50.854
112, 34522.94, 9049.95, 187500.00, 187500.00, 187500.00, 187500.00, 187500.00, 187500.00, 0.000, 0.000, 0.000, 03:02:50.854
113, 34547.48, 9074.54, 187500.00, 187500.00, 187500.00, 187500.00, 187500.00, 187500.00, 0.000, 0.000, 0.000, 03:02:50.854
114, 34539.52, 9042.20, 187500.00, 187500.00, 187500.00, 187500.00, 187500.00, 187500.00, 0.000, 0.000, 0.000, 03:02:50.854
115, 34521.29, 9021.81, 187500.00, 187500.00, 187500.00, 187500.00, 187500.00, 187500.00, 0.000, 0.000, 0.000, 03:02:50.854
116, 34519.56, 9068.64, 187500.00, 187500.00, 187500.00, 187500.00, 187500.00, 187500.00, 0.198, 0.504, -0.876, 03:02:50.854
117, 34547.21, 9068.35, 187500.00, 187500.00, 187500.00, 187500.00, 187500.00, 187500.00, 0.000, 0.000, 0.000, 03:02:50.854
118, 34542.83, 9075.95, 187500.00, 187500.00, 187500.00, 187500.00, 187500.00, 187500.00, 0.000, 0.000, 0.000, 03:02:50.855
119, 34514.54, 9069.49, 187500.00, 187500.00, 187500.00, 187500.00, 187500.00, 187500.00, 0.000, 0.000, 0.000, 03:02:50.855
120, 34509.71, 9051.92, 187500.00, 187500.00, 187500.00, 187500.00, 187500.00, 187500.00, 0.000, 0.000, 0.000, 03:02:50.855
121, 34551.75, 9069.69, 187500.00, 187500.00, 187500.00, 187500.00, 187500.00, 187500.00, 0.000, 0.000, 0.000, 03:02:50.855
122, 34546.86, 9060.55, 187500.00, 187500.00, 187500.00, 187500.00, 187500.00, 187500.00, 0.000, 0.000, 0.000, 03:02:50.855
123, 34536.89, 9045.39, 187500.00, 187500.00, 187500.00, 187500.00, 187500.00, 187500.00, 0.000, 0.000, 0.000, 03:02:50.855
124, 34522.56, 9049.42, 187500.00, 187500.00, 187500.00, 187500.00, 187500.00, 187500.00, 0.000, 0.000, 0.000, 03:02:50.856
125, 34546.83, 9087.19, 187500.00, 187500.00, 187500.00, 187500.00, 187500.00, 187500.00, 0.000, 0.000, 0.000, 03:02:50.856
126, 34548.93, 9091.48, 187500.00, 187500.00, 187500.00, 187500.00, 187500.00, 187500.00, 0.194, 0.504, -0.872, 03:02:50.856
127, 34538.09, 9066.83, 187500.00, 187500.00, 187500.00, 187500.00, 187500.00, 187500.00, 0.000, 0.000, 0.000, 03:02:50.856
128, 34520.01, 9034.89, 187500.00, 187500.00, 187500.00, 187500.00, 187500.00, 187500.00, 0.000, 0.000, 0.000, 03:02:50.856
129, 34536.35, 9062.38, 187500.00, 187500.00, 187500.00, 187500.00, 187500.00, 187500.00, 0.000, 0.000, 0.000, 03:02:50.856
130, 34551.79, 9075.21, 187500.00, 187500.00, 187500.00, 187500.00, 187500.00, 187500.00, 0.000, 0.000, 0.000, 03:02:50.856
131, 34550.39, 9063.41, 187500.00, 187500.00, 187500.00, 187500.00, 187500.00, 187500.00, 0.000, 0.000, 0.000, 03:02:50.856
132, 34526.87, 9060.82, 187500.00, 187500.00, 187500.00, 187500.00, 187500.00, 187500.00, 0.000, 0.000, 0.000, 03:02:50.857
133, 34537.04, 9065.00, 187500.00, 187500.00, 187500.00, 187500.00, 187500.00, 187500.00, 0.000, 0.000, 0.000, 03:02:50.857
134, 34563.42, 9093.16, 187500.00, 187500.00, 187500.00, 187500.00, 187500.00, 187500.00, 0.000, 0.000, 0.000, 03:02:50.857
135, 34560.40, 9089.40, 187500.00, 187500.00, 187500.00, 187500.00, 187500.00, 187500.00, 0.194, 0.500, -0.870, 03:02:50.857
136, 34532.35, 9054.11, 187500.00, 187500.00, 187500.00, 187500.00, 187500.00, 187500.00, 0.000, 0.000, 0.000, 03:02:50.857
137, 34534.94, 9056.99, 187500.00, 187500.00, 187500.00, 187500.00, 187500.00, 187500.00, 0.000, 0.000, 0.000, 03:02:50.857
138, 34574.93, 9080.69, 187500.00, 187500.00, 187500.00, 187500.00, 187500.00, 187500.00, 0.000, 0.000, 0.000, 03:02:50.857
139, 34565.34, 9113.75, 187500.00, 187500.00, 187500.00, 187500.00, 187500.00, 187500.00, 0.000, 0.000, 0.000, 03:02:50.858
140, 34542.09, 9072.10, 187500.00, 187500.00, 187500.00, 187500.00, 187500.00, 187500.00, 0.000, 0.000, 0.000, 03:02:50.858
141, 34535.61, 9072.44, 187500.00, 187500.00, 187500.00, 187500.00, 187500.00, 187500.00, 0.000, 0.000, 0.000, 03:02:50.858
142, 34562.64, 9095.64, 187500.00, 187500.00, 187500.00, 187500.00, 187500.00, 187500.00, 0.000, 0.000, 0.000, 03:02:50.858
143, 34565.09, 9098.55, 187500.00, 187500.00, 187500.00, 187500.00, 187500.00, 187500.00, 0.000, 0.000, 0.000, 03:02:50.858
144, 34549.76, 9087.06, 187500.00, 187500.00, 187500.00, 187500.00, 187500.00, 187500.00, 0.000, 0.000, 0.000, 03:02:50.858
145, 34537.69, 9062.98, 187500.00, 187500.00, 187500.00, 187500.00, 187500.00, 187500.00, 0.200, 0.504, -0.874, 03:02:50.858
146, 34565.47, 9087.48, 187500.00, 187500.00, 187500.00, 187500.00, 187500.00, 187500.00, 0.000, 0.000, 0.000, 03:02:50.859
147, 34563.08, 9094.50, 187500.00, 187500.00, 187500.00, 187500.00, 187500.00, 187500.00, 0.000, 0.000, 0.000, 03:02:50.859
148, 34546.32, 9071.77, 187500.00, 187500.00, 187500.00, 187500.00, 187500.00, 187500.00, 0.000, 0.000, 0.000, 03:02:50.859
149, 34536.98, 9071.59, 187500.00, 187500.00, 187500.00, 187500.00, 187500.00, 187500.00, 0.000, 0.000, 0.000, 03:02:50.859
150, 34566.50, 9090.10, 187500.00, 187500.00, 187500.00, 187500.00, 187500.00, 187500.00, 0.000, 0.000, 0.000, 03:02:50.859
151, 34572.87, 9091.66, 187500.00, 187500.00, 187500.00, 187500.00, 187500.00, 187500.00, 0.000, 0.000, 0.000, 03:02:50.860
152, 34560.45, 9081.02, 187500.00, 187500.00, 187500.00, 187500.00, 187500.00, 187500.00, 0.000, 0.000, 0.000, 03:02:50.860
153, 34543.30, 9056.30, 187500.00, 187500.00, 187500.00, 187500.00, 187500.00, 187500.00, 0.000, 0.000, 0.000, 03:02:50.860
154, 34565.38, 9100.58, 187500.00, 187500.00, 187500.00, 187500.00, 187500.00, 187500.00, 0.000, 0.000, 0.000, 03:02:50.860
155, 34586.15, 9123.98, 187500.00, 187500.00, 187500.00, 187500.00, 187500.00, 187500.00, 0.198, 0.510, -0.870, 03:02:50.860
156, 34565.32, 9093.34, 187500.00, 187500.00, 187500.00, 187500.00, 187500.00, 187500.00, 0.000, 0.000, 0.000, 03:02:50.860
157, 34530.67, 9075.19, 187500.00, 187500.00, 187500.00, 187500.00, 187500.00, 187500.00, 0.000, 0.000, 0.000, 03:02:50.860
158, 34546.32, 9089.09, 187500.00, 187500.00, 187500.00, 187500.00, 187500.00, 187500.00, 0.000, 0.000, 0.000, 03:02:50.861
159, 34570.37, 9096.49, 187500.00, 187500.00, 187500.00, 187500.00, 187500.00, 187500.00, 0.000, 0.000, 0.000, 03:02:50.861
160, 34563.93, 9107.82, 187500.00, 187500.00, 187500.00, 187500.00, 187500.00, 187500.00, 0.000, 0.000, 0.000, 03:02:50.861
161, 34530.94, 9093.07, 187500.00, 187500.00, 187500.00, 187500.00, 187500.00, 187500.00, 0.000, 0.000, 0.000, 03:02:50.861
162, 34524.53, 9075.61, 187500.00, 187500.00, 187500.00, 187500.00, 187500.00, 187500.00, 0.000, 0.000, 0.000, 03:02:50.861
163, 34551.15, 9082.25, 187500.00, 187500.00, 187500.00, 187500.00, 187500.00, 187500.00, 0.000, 0.000, 0.000, 03:02:50.861
164, 34557.14, 9096.49, 187500.00, 187500.00, 187500.00, 187500.00, 187500.00, 187500.00, 0.000, 0.000, 0.000, 03:02:50.861
165, 34538.25, 9068.95, 187500.00, 187500.00, 187500.00, 187500.00, 187500.00, 187500.00, 0.198, 0.506, -0.870, 03:02:50.862
166, 34534.98, 9077.20, 187500.00, 187500.00, 187500.00, 187500.00, 187500.00, 187500.00, 0.000, 0.000, 0.000, 03:02:50.862
167, 34561.12, 9107.06, 187500.00, 187500.00, 187500.00, 187500.00, 187500.00, 187500.00, 0.000, 0.000, 0.000, 03:02:50.862
168, 34561.23, 9098.88, 187500.00, 187500.00, 187500.00, 187500.00, 187500.00, 187500.00, 0.000, 0.000, 0.000, 03:02:50.862
169, 34548.17, 9079.86, 187500.00, 187500.00, 187500.00, 187500.00, 187500.00, 187500.00, 0.000, 0.000, 0.000, 03:02:50.862
170, 34535.84, 9068.42, 187500.00, 187500.00, 187500.00, 187500.00, 187500.00, 187500.00, 0.000, 0.000, 0.000, 03:02:50.862
171, 34560.47, 9100.38, 187500.00, 187500.00, 187500.00, 187500.00, 187500.00, 187500.00, 0.000, 0.000, 0.000, 03:02:50.862
172, 34552.62, 9095.01, 187500.00, 187500.00, 187500.00, 187500.00, 187500.00, 187500.00, 0.000, 0.000, 0.000, 03:02:50.862
173, 34539.55, 9075.66, 187500.00, 187500.00, 187500.00, 187500.00, 187500.00, 187500.00, 0.000, 0.000, 0.000, 03:02:50.862
174, 34515.23, 9053.19, 187500.00, 187500.00, 187500.00, 187500.00, 187500.00, 187500.00, 0.000, 0.000, 0.000, 03:02:50.862
175, 34549.94, 9095.26, 187500.00, 187500.00, 187500.00, 187500.00, 187500.00, 187500.00, 0.198, 0.502, -0.872, 03:02:50.862
176, 34557.79, 9114.33, 187500.00, 187500.00, 187500.00, 187500.00, 187500.00, 187500.00, 0.000, 0.000, 0.000, 03:02:50.862
177, 34545.13, 9103.26, 187500.00, 187500.00, 187500.00, 187500.00, 187500.00, 187500.00, 0.000, 0.000, 0.000, 03:02:50.863
178, 34520.28, 9065.15, 187500.00, 187500.00, 187500.00, 187500.00, 187500.00, 187500.00, 0.000, 0.000, 0.000, 03:02:50.863
179, 34539.50, 9081.16, 187500.00, 187500.00, 187500.00, 187500.00, 187500.00, 187500.00, 0.000, 0.000, 0.000, 03:02:50.863
180, 34551.91, 9097.94, 187500.00, 187500.00, 187500.00, 187500.00, 187500.00, 187500.00, 0.000, 0.000, 0.000, 03:02:50.863
181, 34545.71, 9113.05, 187500.00, 187500.00, 187500.00, 187500.00, 187500.00, 187500.00, 0.000, 0.000, 0.000, 03:02:50.863
182, 34525.66, 9080.26, 187500.00, 187500.00, 187500.00, 187500.00, 187500.00, 187500.00, 0.000, 0.000, 0.000, 03:02:50.863
183, 34540.95, 9082.65, 187500.00, 187500.00, 187500.00, 187500.00, 187500.00, 187500.00, 0.000, 0.000, 0.000, 03:02:50.863
184, 34567.33, 9113.16, 187500.00, 187500.00, 187500.00, 187500.00, 187500.00, 187500.00, 0.000, 0.000, 0.000, 03:02:50.863
185, 34556.27, 9099.86, 187500.00, 187500.00, 187500.00, 187500.00, 187500.00, 187500.00, 0.200, 0.500, -0.872, 03:02:50.863
186, 34515.12, 9039.04, 187500.00, 187500.00, 187500.00, 187500.00, 187500.00, 187500.00, 0.000, 0.000, 0.000, 03:02:50.863
187, 34501.48, 9060.35, 187500.00, 187500.00, 187500.00, 187500.00, 187500.00, 187500.00, 0.000, 0.000, 0.000, 03:02:50.864
188, 34540.29, 9090.10, 187500.00, 187500.00, 187500.00, 187500.00, 187500.00, 187500.00, 0.000, 0.000, 0.000, 03:02:50.864
189, 34539.05, 9078.79, 187500.00, 187500.00, 187500.00, 187500.00, 187500.00, 187500.00, 0.000, 0.000, 0.000, 03:02:50.864
190, 34516.59, 9064.24, 187500.00, 187500.00, 187500.00, 187500.00, 187500.00, 187500.00, 0.000, 0.000, 0.000, 03:02:50.864
191, 34505.86, 9041.37, 187500.00, 187500.00, 187500.00, 187500.00, 187500.00, 187500.00, 0.000, 0.000, 0.000, 03:02:50.864
192, 34538.25, 9052.10, 187500.00, 187500.00, 187500.00, 187500.00, 187500.00, 187500.00, 0.000, 0.000, 0.000, 03:02:50.864
193, 34549.61, 9076.10, 187500.00, 187500.00, 187500.00, 187500.00, 187500.00, 187500.00, 0.000, 0.000, 0.000, 03:02:50.864
194, 34530.38, 9089.87, 187500.00, 187500.00, 187500.00, 187500.00, 187500.00, 187500.00, 0.000, 0.000, 0.000, 03:02:50.864
195, 34516.21, 9072.55, 187500.00, 187500.00, 187500.00, 187500.00, 187500.00, 187500.00, 0.198, 0.502, -0.872, 03:02:50.864
196, 34542.59, 9097.36, 187500.00, 187500.00, 187500.00, 187500.00, 187500.00, 187500.00, 0.000, 0.000, 0.000, 03:02:50.865
197, 34546.25, 9089.76, 187500.00, 187500.00, 187500.00, 187500.00, 187500.00, 187500.00, 0.000, 0.000, 0.000, 03:02:50.865
198, 34528.93, 9081.94, 187500.00, 187500.00, 187500.00, 187500.00, 187500.00, 187500.00, 0.000, 0.000, 0.000, 03:02:50.865
199, 34509.73, 9058.04, 187500.00, 187500.00, 187500.00, 187500.00, 187500.00, 187500.00, 0.000, 0.000, 0.000, 03:02:50.865
200, 34540.44, 9085.00, 187500.00, 187500.00, 187500.00, 187500.00, 187500.00, 187500.00, 0.000, 0.000, 0.000, 03:02:50.865
201, 34551.41, 9107.75, 187500.00, 187500.00, 187500.00, 187500.00, 187500.00, 187500.00, 0.000, 0.000, 0.000, 03:02:50.865
202, 34535.52, 9080.60, 187500.00, 187500.00, 187500.00, 187500.00, 187500.00, 187500.00, 0.000, 0.000, 0.000, 03:02:50.865
203, 34505.01, 9047.74, 187500.00, 187500.00, 187500.00, 187500.00, 187500.00, 187500.00, 0.000, 0.000, 0.000, 03:02:50.865
204, 34517.77, 9079.55, 187500.00, 187500.00, 187500.00, 187500.00, 187500.00, 187500.00, 0.198, 0.502, -0.872, 03:02:50.865
205, 34537.16, 9094.79, 187500.00, 187500.00, 187500.00, 187500.00, 187500.00, 187500.00, 0.000, 0.000, 0.000, 03:02:50.866
206, 34529.22, 9079.30, 187500.00, 187500.00, 187500.00, 187500.00, 187500.00, 187500.00, 0.000, 0.000, 0.000, 03:02:50.866
207, 34499.04, 9058.60, 187500.00, 187500.00, 187500.00, 187500.00, 187500.00, 187500.00, 0.000, 0.000, 0.000, 03:02:50.866
208, 34499.27, 9060.79, 187500.00, 187500.00, 187500.00, 187500.00, 187500.00, 187500.00, 0.000, 0.000, 0.000, 03:02:50.866
209, 34537.82, 9086.10, 187500.00, 187500.00, 187500.00, 187500.00, 187500.00, 187500.00, 0.000, 0.000, 0.000, 03:02:50.866
210, 34535.68, 9085.18, 187500.00, 187500.00, 187500.00, 187500.00, 187500.00, 187500.00, 0.000, 0.000, 0.000, 03:02:50.866
211, 34508.39, 9051.96, 187500.00, 187500.00, 187500.00, 187500.00, 187500.00, 187500.00, 0.000, 0.000, 0.000, 03:02:50.866
212, 34499.34, 9034.24, 187500.00, 187500.00, 187500.00, 187500.00, 187500.00, 187500.00, 0.000, 0.000, 0.000, 03:02:50.866
213, 34534.36, 9060.41, 187500.00, 187500.00, 187500.00, 187500.00, 187500.00, 187500.00, 0.000, 0.000, 0.000, 03:02:50.866
214, 34530.88, 9087.82, 187500.00, 187500.00, 187500.00, 187500.00, 187500.00, 187500.00, 0.196, 0.502, -0.878, 03:02:50.867
215, 34511.58, 9093.00, 187500.00, 187500.00, 187500.00, 187500.00, 187500.00, 187500.00, 0.000, 0.000, 0.000, 03:02:50.867
216, 34494.86, 9047.20, 187500.00, 187500.00, 187500.00, 187500.00, 187500.00, 187500.00, 0.000, 0.000, 0.000, 03:02:50.867
217, 34524.32, 9065.49, 187500.00, 187500.00, 187500.00, 187500.00, 187500.00, 187500.00, 0.000, 0.000, 0.000, 03:02:50.867
218, 34534.58, 9083.53, 187500.00, 187500.00, 187500.00, 187500.00, 187500.00, 187500.00, 0.000, 0.000, 0.000, 03:02:50.867
219, 34521.55, 9071.54, 187500.00, 187500.00, 187500.00, 187500.00, 187500.00, 187500.00, 0.000, 0.000, 0.000, 03:02:50.867
220, 34507.83, 9071.08, 187500.00, 187500.00, 187500.00, 187500.00, 187500.00, 187500.00, 0.000, 0.000, 0.000, 03:02:50.867
221, 34525.35, 9093.74, 187500.00, 187500.00, 187500.00, 187500.00, 187500.00, 187500.00, 0.000, 0.000, 0.000, 03:02:50.868
222, 34543.41, 9103.15, 187500.00, 187500.00, 187500.00, 187500.00, 187500.00, 187500.00, 0.000, 0.000, 0.000, 03:02:50.868
223, 34527.10, 9077.56, 187500.00, 187500.00, 187500.00, 187500.00, 187500.00, 187500.00, 0.000, 0.000, 0.000, 03:02:50.868
224, 34501.84, 9056.43, 187500.00, 187500.00, 187500.00, 187500.00, 187500.00, 187500.00, 0.196, 0.498, -0.876, 03:02:50.868
225, 34523.03, 9087.24, 187500.00, 187500.00, 187500.00, 187500.00, 187500.00, 187500.00, 0.000, 0.000, 0.000, 03:02:51.333
226, 34537.56, 9087.39, 187500.00, 187500.00, 187500.00, 187500.00, 187500.00, 187500.00, 0.000, 0.000, 0.000, 03:02:51.333
227, 34521.87, 9073.49, 187500.00, 187500.00, 187500.00, 187500.00, 187500.00, 187500.00, 0.000, 0.000, 0.000, 03:02:51.333
228, 34494.42, 9056.99, 187500.00, 187500.00, 187500.00, 187500.00, 187500.00, 187500.00, 0.000, 0.000, 0.000, 03:02:51.334
229, 34523.00, 9083.41, 187500.00, 187500.00, 187500.00, 187500.00, 187500.00, 187500.00, 0.000, 0.000, 0.000, 03:02:51.334
230, 34538.25, 9091.75, 187500.00, 187500.00, 187500.00, 187500.00, 187500.00, 187500.00, 0.000, 0.000, 0.000, 03:02:51.334
231, 34525.09, 9069.00, 187500.00, 187500.00, 187500.00, 187500.00, 187500.00, 187500.00, 0.000, 0.000, 0.000, 03:02:51.334
232, 34499.31, 9062.16, 187500.00, 187500.00, 187500.00, 187500.00, 187500.00, 187500.00, 0.000, 0.000, 0.000, 03:02:51.334
233, 34506.69, 9047.78, 187500.00, 187500.00, 187500.00, 187500.00, 187500.00, 187500.00, 0.000, 0.000, 0.000, 03:02:51.334
234, 34534.18, 9082.79, 187500.00, 187500.00, 187500.00, 187500.00, 187500.00, 187500.00, 0.200, 0.502, -0.876, 03:02:51.334
235, 34528.41, 9078.41, 187500.00, 187500.00, 187500.00, 187500.00, 187500.00, 187500.00, 0.000, 0.000, 0.000, 03:02:51.334
236, 34515.38, 9086.39, 187500.00, 187500.00, 187500.00, 187500.00, 187500.00, 187500.00, 0.000, 0.000, 0.000, 03:02:51.334
237, 34515.18, 9097.54, 187500.00, 187500.00, 187500.00, 187500.00, 187500.00, 187500.00, 0.000, 0.000, 0.000, 03:02:51.334
238, 34552.13, 9116.47, 187500.00, 187500.00, 187500.00, 187500.00, 187500.00, 187500.00, 0.000, 0.000, 0.000, 03:02:51.335
239, 34537.13, 9094.10, 187500.00, 187500.00, 187500.00, 187500.00, 187500.00, 187500.00, 0.000, 0.000, 0.000, 03:02:51.335
240, 34519.23, 9067.16, 187500.00, 187500.00, 187500.00, 187500.00, 187500.00, 187500.00, 0.000, 0.000, 0.000, 03:02:51.335
241, 34517.15, 9060.64, 187500.00, 187500.00, 187500.00, 187500.00, 187500.00, 187500.00, 0.000, 0.000, 0.000, 03:02:51.335
242, 34544.04, 9081.04, 187500.00, 187500.00, 187500.00, 187500.00, 187500.00, 187500.00, 0.000, 0.000, 0.000, 03:02:51.335
243, 34536.68, 9094.81, 187500.00, 187500.00, 187500.00, 187500.00, 187500.00, 187500.00, 0.000, 0.000, 0.000, 03:02:51.335
244, 34517.21, 9071.75, 187500.00, 187500.00, 187500.00, 187500.00, 187500.00, 187500.00, 0.198, 0.504, -0.872, 03:02:51.335
245, 34503.85, 9059.90, 187500.00, 187500.00, 187500.00, 187500.00, 187500.00, 187500.00, 0.000, 0.000, 0.000, 03:02:51.335
246, 34532.68, 9082.21, 187500.00, 187500.00, 187500.00, 187500.00, 187500.00, 187500.00, 0.000, 0.000, 0.000, 03:02:51.335
247, 34543.64, 9096.91, 187500.00, 187500.00, 187500.00, 187500.00, 187500.00, 187500.00, 0.000, 0.000, 0.000, 03:02:51.335
248, 34526.43, 9081.83, 187500.00, 187500.00, 187500.00, 187500.00, 187500.00, 187500.00, 0.000, 0.000, 0.000, 03:02:51.336
249, 34503.61, 9061.53, 187500.00, 187500.00, 187500.00, 187500.00, 187500.00, 187500.00, 0.000, 0.000, 0.000, 03:02:51.336
250, 34524.46, 9044.81, 187500.00, 187500.00, 187500.00, 187500.00, 187500.00, 187500.00, 0.000, 0.000, 0.000, 03:02:51.336
251, 34539.25, 9061.60, 187500.00, 187500.00, 187500.00, 187500.00, 187500.00, 187500.00, 0.000, 0.000, 0.000, 03:02:51.336
252, 34527.75, 9122.60, 187500.00, 187500.00, 187500.00, 187500.00, 187500.00, 187500.00, 0.000, 0.000, 0.000, 03:02:51.336
253, 34500.54, 9081.69, 187500.00, 187500.00, 187500.00, 187500.00, 187500.00, 187500.00, 0.000, 0.000, 0.000, 03:02:51.336
254, 34517.75, 9080.35, 187500.00, 187500.00, 187500.00, 187500.00, 187500.00, 187500.00, 0.200, 0.506, -0.868, 03:02:51.336
255, 34541.45, 9101.61, 187500.00, 187500.00, 187500.00, 187500.00, 187500.00, 187500.00, 0.000, 0.000, 0.000, 03:02:51.336
0, 34523.14, 9091.75, 187500.00, 187500.00, 187500.00, 187500.00, 187500.00, 187500.00, 0.000, 0.000, 0.000, 03:02:51.336
1, 34504.97, 9071.70, 187500.00, 187500.00, 187500.00, 187500.00, 187500.00, 187500.00, 0.000, 0.000, 0.000, 03:02:51.336
2, 34523.88, 9082.16, 187500.00, 187500.00, 187500.00, 187500.00, 187500.00, 187500.00, 0.000, 0.000, 0.000, 03:02:51.337
3, 34538.65, 9077.18, 187500.00, 187500.00, 187500.00, 187500.00, 187500.00, 187500.00, 0.000, 0.000, 0.000, 03:02:51.337
4, 34525.00, 9069.53, 187500.00, 187500.00, 187500.00, 187500.00, 187500.00, 187500.00, 0.000, 0.000, 0.000, 03:02:51.337
5, 34495.02, 9067.12, 187500.00, 187500.00, 187500.00, 187500.00, 187500.00, 187500.00, 0.000, 0.000, 0.000, 03:02:51.337
6, 34503.38, 9067.19, 187500.00, 187500.00, 187500.00, 187500.00, 187500.00, 187500.00, 0.000, 0.000, 0.000, 03:02:51.337
7, 34549.74, 9104.22, 187500.00, 187500.00, 187500.00, 187500.00, 187500.00, 187500.00, 0.196, 0.506, -0.874, 03:02:51.337
8, 34547.75, 9093.45, 187500.00, 187500.00, 187500.00, 187500.00, 187500.00, 187500.00, 0.000, 0.000, 0.000, 03:02:51.337
9, 34519.72, 9061.82, 187500.00, 187500.00, 187500.00, 187500.00, 187500.00, 187500.00, 0.000, 0.000, 0.000, 03:02:51.337
10, 34509.84, 9074.09, 187500.00, 187500.00, 187500.00, 187500.00, 187500.00, 187500.00, 0.000, 0.000, 0.000, 03:02:51.337
11, 34527.07, 9099.53, 187500.00, 187500.00, 187500.00, 187500.00, 187500.00, 187500.00, 0.000, 0.000, 0.000, 03:02:51.337
12, 34531.72, 9086.97, 187500.00, 187500.00, 187500.00, 187500.00, 187500.00, 187500.00, 0.000, 0.000, 0.000, 03:02:51.338
13, 34527.95, 9096.71, 187500.00, 187500.00, 187500.00, 187500.00, 187500.00, 187500.00, 0.000, 0.000, 0.000, 03:02:51.338
14, 34505.48, 9066.67, 187500.00, 187500.00, 187500.00, 187500.00, 187500.00, 187500.00, 0.000, 0.000, 0.000, 03:02:51.338
15, 34528.15, 9084.44, 187500.00, 187500.00, 187500.00, 187500.00, 187500.00, 187500.00, 0.000, 0.000, 0.000, 03:02:51.338
16, 34539.48, 9094.57, 187500.00, 187500.00, 187500.00, 187500.00, 187500.00, 187500.00, 0.000, 0.000, 0.000, 03:02:51.338
17, 34528.73, 9077.89, 187500.00, 187500.00, 187500.00, 187500.00, 187500.00, 187500.00, 0.202, 0.506, -0.872, 03:02:51.338
18, 34503.85, 9057.66, 187500.00, 187500.00, 187500.00, 187500.00, 187500.00, 187500.00, 0.000, 0.000, 0.000, 03:02:51.338
19, 34520.43, 9064.66, 187500.00, 187500.00, 187500.00, 187500.00, 187500.00, 187500.00, 0.000, 0.000, 0.000, 03:02:51.338
20, 34544.48, 9093.38, 187500.00, 187500.00, 187500.00, 187500.00, 187500.00, 187500.00, 0.000, 0.000, 0.000, 03:02:51.338
21, 34531.23, 9088.49, 187500.00, 187500.00, 187500.00, 187500.00, 187500.00, 187500.00, 0.000, 0.000, 0.000, 03:02:51.338
22, 34511.45, 9059.92, 187500.00, 187500.00, 187500.00, 187500.00, 187500.00, 187500.00, 0.000, 0.000, 0.000, 03:02:51.339
23, 34522.49, 9060.75, 187500.00, 187500.00, 187500.00, 187500.00, 187500.00, 187500.00, 0.000, 0.000, 0.000, 03:02:51.339
24, 34535.88, 9086.92, 187500.00, 187500.00, 187500.00, 187500.00, 187500.00, 187500.00, 0.000, 0.000, 0.000, 03:02:51.339
25, 34520.17, 9091.50, 187500.00, 187500.00, 187500.00, 187500.00, 187500.00, 187500.00, 0.000, 0.000, 0.000, 03:02:51.339
26, 34505.48, 9066.18, 187500.00, 187500.00, 187500.00, 187500.00, 187500.00, 187500.00, 0.000, 0.000, 0.000, 03:02:51.339
27, 34518.78, 9078.90, 187500.00, 187500.00, 187500.00, 187500.00, 187500.00, 187500.00, 0.204, 0.506, -0.870, 03:02:51.339
28, 34547.68, 9089.14, 187500.00, 187500.00, 187500.00, 187500.00, 187500.00, 187500.00, 0.000, 0.000, 0.000, 03:02:51.339
29, 34542.07, 9079.32, 187500.00, 187500.00, 187500.00, 187500.00, 187500.00, 187500.00, 0.000, 0.000, 0.000, 03:02:51.339
30, 34520.73, 9070.09, 187500.00, 187500.00, 187500.00, 187500.00, 187500.00, 187500.00, 0.000, 0.000, 0.000, 03:02:51.339
31, 34518.82, 9069.06, 187500.00, 187500.00, 187500.00, 187500.00, 187500.00, 187500.00, 0.000, 0.000, 0.000, 03:02:51.340
32, 34546.65, 9102.70, 187500.00, 187500.00, 187500.00, 187500.00, 187500.00, 187500.00, 0.000, 0.000, 0.000, 03:02:51.340
33, 34551.32, 9100.40, 187500.00, 187500.00, 187500.00, 187500.00, 187500.00, 187500.00, 0.000, 0.000, 0.000, 03:02:51.340
34, 34530.45, 9077.07, 187500.00, 187500.00, 187500.00, 187500.00, 187500.00, 187500.00, 0.000, 0.000, 0.000, 03:02:51.340
35, 34513.19, 9055.58, 187500.00, 187500.00, 187500.00, 187500.00, 187500.00, 187500.00, 0.000, 0.000, 0.000, 03:02:51.340
36, 34538.47, 9068.01, 187500.00, 187500.00, 187500.00, 187500.00, 187500.00, 187500.00, 0.000, 0.000, 0.000, 03:02:51.340
37, 34540.95, 9064.86, 187500.00, 187500.00, 187500.00, 187500.00, 187500.00, 187500.00, 0.202, 0.504, -0.868, 03:02:51.340
38, 34519.25, 9078.21, 187500.00, 187500.00, 187500.00, 187500.00, 187500.00, 187500.00, 0.000, 0.000, 0.000, 03:02:51.340
39, 34505.77, 9080.66, 187500.00, 187500.00, 187500.00, 187500.00, 187500.00, 187500.00, 0.000, 0.000, 0.000, 03:02:51.341
40, 34529.18, 9085.83, 187500.00, 187500.00, 187500.00, 187500.00, 187500.00, 187500.00, 0.000, 0.000, 0.000, 03:02:51.341
41, 34544.39, 9093.23, 187500.00, 187500.00, 187500.00, 187500.00, 187500.00, 187500.00, 0.000, 0.000, 0.000, 03:02:51.341
42, 34532.86, 9081.96, 187500.00, 187500.00, 187500.00, 187500.00, 187500.00, 187500.00, 0.000, 0.000, 0.000, 03:02:51.341
43, 34512.99, 9056.57, 187500.00, 187500.00, 187500.00, 187500.00, 187500.00, 187500.00, 0.000, 0.000, 0.000, 03:02:51.341
44, 34529.64, 9058.42, 187500.00, 187500.00, 187500.00, 187500.00, 187500.00, 187500.00, 0.000, 0.000, 0.000, 03:02:51.341
45, 34542.79, 9071.57, 187500.00, 187500.00, 187500.00, 187500.00, 187500.00, 187500.00, 0.000, 0.000, 0.000, 03:02:51.341
46, 34529.20, 9106.39, 187500.00, 187500.00, 187500.00, 187500.00, 187500.00, 187500.00, 0.000, 0.000, 0.000, 03:02:51.341
47, 34509.46, 9078.65, 187500.00, 187500.00, 187500.00, 187500.00, 187500.00, 187500.00, 0.202, 0.504, -0.870, 03:02:51.341
48, 34517.62, 9065.35, 187500.00, 187500.00, 187500.00, 187500.00, 187500.00, 187500.00, 0.000, 0.000, 0.000, 03:02:51.342
49, 34545.76, 9092.78, 187500.00, 187500.00, 187500.00, 187500.00, 187500.00, 187500.00, 0.000, 0.000, 0.000, 03:02:51.342
50, 34553.94, 9091.44, 187500.00, 187500.00, 187500.00, 187500.00, 187500.00, 187500.00, 0.000, 0.000, 0.000, 03:02:51.342
51, 34532.46, 9078.74, 187500.00, 187500.00, 187500.00, 187500.00, 187500.00, 187500.00, 0.000, 0.000, 0.000, 03:02:51.342
52, 34530.23, 9074.85, 187500.00, 187500.00, 187500.00, 187500.00, 187500.00, 187500.00, 0.000, 0.000, 0.000, 03:02:51.342
53, 34543.52, 9084.29, 187500.00, 187500.00, 187500.00, 187500.00, 187500.00, 187500.00, 0.000, 0.000, 0.000, 03:02:51.342
54, 34539.57, 9073.96, 187500.00, 187500.00, 187500.00, 187500.00, 187500.00, 187500.00, 0.000, 0.000, 0.000, 03:02:51.342
55, 34520.59, 9058.13, 187500.00, 187500.00, 187500.00, 187500.00, 187500.00, 187500.00, 0.000, 0.000, 0.000, 03:02:51.342
56, 34517.66, 9061.93, 187500.00, 187500.00, 187500.00, 187500.00, 187500.00, 187500.00, 0.000, 0.000, 0.000, 03:02:51.342
57, 34549.80, 9104.18, 187500.00, 187500.00, 187500.00, 187500.00, 187500.00, 187500.00, 0.198, 0.504, -0.872, 03:02:51.343
58, 34557.67, 9103.19, 187500.00, 187500.00, 187500.00, 187500.00, 187500.00, 187500.00, 0.000, 0.000, 0.000, 03:02:51.343
59, 34542.12, 9078.63, 187500.00, 187500.00, 187500.00, 187500.00, 187500.00, 187500.00, 0.000, 0.000, 0.000, 03:02:51.343
60, 34527.03, 9060.23, 187500.00, 187500.00, 187500.00, 187500.00, 187500.00, 187500.00, 0.000, 0.000, 0.000, 03:02:51.343
61, 34548.15, 9070.70, 187500.00, 187500.00, 187500.00, 187500.00, 187500.00, 187500.00, 0.000, 0.000, 0.000, 03:02:51.343
62, 34544.13, 9055.43, 187500.00, 187500.00, 187500.00, 187500.00, 187500.00, 187500.00, 0.000, 0.000, 0.000, 03:02:51.343
63, 34528.13, 9058.38, 187500.00, 187500.00, 187500.00, 187500.00, 187500.00, 187500.00, 0.000, 0.000, 0.000, 03:02:51.343
64, 34509.75, 9035.85, 187500.00, 187500.00, 187500.00, 187500.00, 187500.00, 187500.00, 0.000, 0.000, 0.000, 03:02:51.343
65, 34532.91, 9064.88, 187500.00, 187500.00, 187500.00, 187500.00, 187500.00, 187500.00, 0.000, 0.000, 0.000, 03:02:51.344
66, 34546.48, 9088.58, 187500.00, 187500.00, 187500.00, 187500.00, 187500.00, 187500.00, 0.000, 0.000, 0.000, 03:02:51.344
67, 34537.16, 9064.08, 187500.00, 187500.00, 187500.00, 187500.00, 187500.00, 187500.00, 0.204, 0.502, -0.878, 03:02:51.344
68, 34516.93, 9077.07, 187500.00, 187500.00, 187500.00, 187500.00, 187500.00, 187500.00, 0.000, 0.000, 0.000, 03:02:51.344
69, 34541.78, 9099.24, 187500.00, 187500.00, 187500.00, 187500.00, 187500.00, 187500.00, 0.000, 0.000, 0.000, 03:02:51.344
70, 34560.22, 9107.13, 187500.00, 187500.00, 187500.00, 187500.00, 187500.00, 187500.00, 0.000, 0.000, 0.000, 03:02:51.344
71, 34549.83, 9091.82, 187500.00, 187500.00, 187500.00, 187500.00, 187500.00, 187500.00, 0.000, 0.000, 0.000, 03:02:51.344
72, 34531.19, 9075.84, 187500.00, 187500.00, 187500.00, 187500.00, 187500.00, 187500.00, 0.000, 0.000, 0.000, 03:02:51.344
73, 34539.55, 9072.75, 187500.00, 187500.00, 187500.00, 187500.00, 187500.00, 187500.00, 0.000, 0.000, 0.000, 03:02:51.344
74, 34559.68, 9078.16, 187500.00, 187500.00, 187500.00, 187500.00, 187500.00, 187500.00, 0.000, 0.000, 0.000, 03:02:51.344
75, 34550.25, 9069.44, 187500.00, 187500.00, 187500.00, 187500.00, 187500.00, 187500.00, 0.000, 0.000, 0.000, 03:02:51.345
76, 34530.32, 9073.11, 187500.00, 187500.00, 187500.00, 187500.00, 187500.00, 187500.00, 0.204, 0.500, -0.874, 03:02:51.345
77, 34527.81, 9055.94, 187500.00, 187500.00, 187500.00, 187500.00, 187500.00, 187500.00, 0.000, 0.000, 0.000, 03:02:51.345
78, 34564.94, 9086.77, 187500.00, 187500.00, 187500.00, 187500.00, 187500.00, 187500.00, 0.000, 0.000, 0.000, 03:02:51.345
79, 34558.05, 9077.69, 187500.00, 187500.00, 187500.00, 187500.00, 187500.00, 187500.00, 0.000, 0.000, 0.000, 03:02:51.345
80, 34528.50, 9064.24, 187500.00, 187500.00, 187500.00, 187500.00, 187500.00, 187500.00, 0.000, 0.000, 0.000, 03:02:51.345
81, 34518.42, 9056.81, 187500.00, 187500.00, 187500.00, 187500.00, 187500.00, 187500.00, 0.000, 0.000, 0.000, 03:02:51.345
82, 34548.06, 9078.79, 187500.00, 187500.00, 187500.00, 187500.00, 187500.00, 187500.00, 0.000, 0.000, 0.000, 03:02:51.345
83, 34551.19, 9075.52, 187500.00, 187500.00, 187500.00, 187500.00, 187500.00, 187500.00, 0.000, 0.000, 0.000, 03:02:51.345
84, 34534.09, 9083.82, 187500.00, 187500.00, 187500.00, 187500.00, 187500.00, 187500.00, 0.000, 0.000, 0.000, 03:02:51.346
85, 34516.95, 9071.17, 187500.00, 187500.00, 187500.00, 187500.00, 187500.00, 187500.00, 0.000, 0.000, 0.000, 03:02:51.346
86, 34534.94, 9082.27, 187500.00, 187500.00, 187500.00, 187500.00, 187500.00, 187500.00, 0.204, 0.504, -0.878, 03:02:51.346
87, 34539.81, 9085.89, 187500.00, 187500.00, 187500.00, 187500.00, 187500.00, 187500.00, 0.000, 0.000, 0.000, 03:02:51.346
88, 34532.35, 9070.65, 187500.00, 187500.00, 187500.00, 187500.00, 187500.00, 187500.00, 0.000, 0.000, 0.000, 03:02:51.346
89, 34498.04, 9023.29, 187500.00, 187500.00, 187500.00, 187500.00, 187500.00, 187500.00, 0.000, 0.000, 0.000, 03:02:51.346
90, 34519.38, 9053.78, 187500.00, 187500.00, 187500.00, 187500.00, 187500.00, 187500.00, 0.000, 0.000, 0.000, 03:02:51.813
91, 34535.79, 9078.45, 187500.00, 187500.00, 187500.00, 187500.00, 187500.00, 187500.00, 0.000, 0.000, 0.000, 03:02:51.813
92, 34530.02, 9079.46, 187500.00, 187500.00, 187500.00, 187500.00, 187500.00, 187500.00, 0.000, 0.000, 0.000, 03:02:51.813
93, 34510.38, 9045.15, 187500.00, 187500.00, 187500.00, 187500.00, 187500.00, 187500.00, 0.000, 0.000, 0.000, 03:02:51.813
94, 34518.36, 9041.91, 187500.00, 187500.00, 187500.00, 187500.00, 187500.00, 187500.00, 0.000, 0.000, 0.000, 03:02:51.814
95, 34536.08, 9093.34, 187500.00, 187500.00, 187500.00, 187500.00, 187500.00, 187500.00, 0.000, 0.000, 0.000, 03:02:51.814
96, 34531.70, 9094.46, 187500.00, 187500.00, 187500.00, 187500.00, 187500.00, 187500.00, 0.196, 0.506, -0.882, 03:02:51.814
97, 34519.61, 9056.48, 187500.00, 187500.00, 187500.00, 187500.00, 187500.00, 187500.00, 0.000, 0.000, 0.000, 03:02:51.814
98, 34522.56, 9050.44, 187500.00, 187500.00, 187500.00, 187500.00, 187500.00, 187500.00, 0.000, 0.000, 0.000, 03:02:51.814
99, 34550.03, 9071.43, 187500.00, 187500.00, 187500.00, 187500.00, 187500.00, 187500.00, 0.000, 0.000, 0.000, 03:02:51.814
100, 34548.80, 9076.57, 187500.00, 187500.00, 187500.00, 187500.00, 187500.00, 187500.00, 0.000, 0.000, 0.000, 03:02:51.814
101, 34523.81, 9081.20, 187500.00, 187500.00, 187500.00, 187500.00, 187500.00, 187500.00, 0.000, 0.000, 0.000, 03:02:51.814
102, 34521.71, 9065.51, 187500.00, 187500.00, 187500.00, 187500.00, 187500.00, 187500.00, 0.000, 0.000, 0.000, 03:02:51.815
103, 34548.82, 9073.44, 187500.00, 187500.00, 187500.00, 187500.00, 187500.00, 187500.00, 0.000, 0.000, 0.000, 03:02:51.815
104, 34546.09, 9074.23, 187500.00, 187500.00, 187500.00, 187500.00, 187500.00, 187500.00, 0.000, 0.000, 0.000, 03:02:51.815
105, 34526.20, 9062.56, 187500.00, 187500.00, 187500.00, 187500.00, 187500.00, 187500.00, 0.000, 0.000, 0.000, 03:02:51.815
106, 34519.05, 9055.94, 187500.00, 187500.00, 187500.00, 187500.00, 187500.00, 187500.00, 0.200, 0.512, -0.880, 03:02:51.815
107, 34549.74, 9082.97, 187500.00, 187500.00, 187500.00, 187500.00, 187500.00, 187500.00, 0.000, 0.000, 0.000, 03:02:51.815
108, 34549.85, 9085.74, 187500.00, 187500.00, 187500.00, 187500.00, 187500.00, 187500.00, 0.000, 0.000, 0.000, 03:02:51.815
109, 34537.33, 9077.62, 187500.00, 187500.00, 187500.00, 187500.00, 187500.00, 187500.00, 0.000, 0.000, 0.000, 03:02:51.815
110, 34516.37, 9041.95, 187500.00, 187500.00, 187500.00, 187500.00, 187500.00, 187500.00, 0.000, 0.000, 0.000, 03:02:51.815
111, 34540.30, 9069.24, 187500.00, 187500.00, 187500.00, 187500.00, 187500.00, 187500.00, 0.000, 0.000, 0.000, 03:02:51.816
112, 34555.08, 9113.45, 187500.00, 187500.00, 187500.00, 187500.00, 187500.00, 187500.00, 0.000, 0.000, 0.000, 03:02:51.816
113, 34543.37, 9107.93, 187500.00, 187500.00, 187500.00, 187500.00, 187500.00, 187500.00, 0.000, 0.000, 0.000, 03:02:51.816
114, 34516.77, 9068.28, 187500.00, 187500.00, 187500.00, 187500.00, 187500.00, 187500.00, 0.000, 0.000, 0.000, 03:02:51.816
115, 34541.00, 9079.03, 187500.00, 187500.00, 187500.00, 187500.00, 187500.00, 187500.00, 0.000, 0.000, 0.000, 03:02:51.816
116, 34575.98, 9092.38, 187500.00, 187500.00, 187500.00, 187500.00, 187500.00, 187500.00, 0.202, 0.504, -0.876, 03:02:51.816
117, 34554.36, 9085.56, 187500.00, 187500.00, 187500.00, 187500.00, 187500.00, 187500.00, 0.000, 0.000, 0.000, 03:02:51.816
118, 34533.33, 9075.10, 187500.00, 187500.00, 187500.00, 187500.00, 187500.00, 187500.00, 0.000, 0.000, 0.000, 03:02:51.816
119, 34551.28, 9086.95, 187500.00, 187500.00, 187500.00, 187500.00, 187500.00, 187500.00, 0.000, 0.000, 0.000, 03:02:51.816
120, 34566.84, 9109.05, 187500.00, 187500.00, 187500.00, 187500.00, 187500.00, 187500.00, 0.000, 0.000, 0.000, 03:02:51.816
121, 34563.98, 9099.93, 187500.00, 187500.00, 187500.00, 187500.00, 187500.00, 187500.00, 0.000, 0.000, 0.000, 03:02:51.817
122, 34542.65, 9072.44, 187500.00, 187500.00, 187500.00, 187500.00, 187500.00, 187500.00, 0.000, 0.000, 0.000, 03:02:51.817
123, 34539.12, 9063.36, 187500.00, 187500.00, 187500.00, 187500.00, 187500.00, 187500.00, 0.000, 0.000, 0.000, 03:02:51.817
124, 34555.55, 9092.42, 187500.00, 187500.00, 187500.00, 187500.00, 187500.00, 187500.00, 0.000, 0.000, 0.000, 03:02:51.817
125, 34552.46, 9087.97, 187500.00, 187500.00, 187500.00, 187500.00, 187500.00, 187500.00, 0.000, 0.000, 0.000, 03:02:51.817
126, 34530.65, 9068.39, 187500.00, 187500.00, 187500.00, 187500.00, 187500.00, 187500.00, 0.198, 0.502, -0.878, 03:02:51.817
127, 34522.04, 9046.60, 187500.00, 187500.00, 187500.00, 187500.00, 187500.00, 187500.00, 0.000, 0.000, 0.000, 03:02:51.817
128, 34548.20, 9117.01, 187500.00, 187500.00, 187500.00, 187500.00, 187500.00, 187500.00, 0.000, 0.000, 0.000, 03:02:51.817
129, 34559.66, 9123.78, 187500.00, 187500.00, 187500.00, 187500.00, 187500.00, 187500.00, 0.000, 0.000, 0.000, 03:02:51.817
130, 34543.17, 9093.61, 187500.00, 187500.00, 187500.00, 187500.00, 187500.00, 187500.00, 0.000, 0.000, 0.000, 03:02:51.817
131, 34520.59, 9067.07, 187500.00, 187500.00, 187500.00, 187500.00, 187500.00, 187500.00, 0.000, 0.000, 0.000, 03:02:51.818
132, 34547.73, 9101.94, 187500.00, 187500.00, 187500.00, 187500.00, 187500.00, 187500.00, 0.000, 0.000, 0.000, 03:02:51.818
133, 34551.82, 9094.68, 187500.00, 187500.00, 187500.00, 187500.00, 187500.00, 187500.00, 0.000, 0.000, 0.000, 03:02:51.818
134, 34541.91, 9084.91, 187500.00, 187500.00, 187500.00, 187500.00, 187500.00, 187500.00, 0.000, 0.000, 0.000, 03:02:51.818
135, 34516.30, 9079.59, 187500.00, 187500.00, 187500.00, 187500.00, 187500.00, 187500.00, 0.202, 0.508, -0.874, 03:02:51.818
136, 34538.34, 9090.01, 187500.00, 187500.00, 187500.00, 187500.00, 187500.00, 187500.00, 0.000, 0.000, 0.000, 03:02:51.818
137, 34556.38, 9110.19, 187500.00, 187500.00, 187500.00, 187500.00, 187500.00, 187500.00, 0.000, 0.000, 0.000, 03:02:51.818
138, 34543.12, 9095.95, 187500.00, 187500.00, 187500.00, 187500.00, 187500.00, 187500.00, 0.000, 0.000, 0.000, 03:02:51.818
139, 34511.85, 9062.42, 187500.00, 187500.00, 187500.00, 187500.00, 187500.00, 187500.00, 0.000, 0.000, 0.000, 03:02:51.818
140, 34531.84, 9081.92, 187500.00, 187500.00, 187500.00, 187500.00, 187500.00, 187500.00, 0.000, 0.000, 0.000, 03:02:51.818
141, 34551.50, 9109.43, 187500.00, 187500.00, 187500.00, 187500.00, 187500.00, 187500.00, 0.000, 0.000, 0.000, 03:02:51.819
142, 34555.33, 9112.02, 187500.00, 187500.00, 187500.00, 187500.00, 187500.00, 187500.00, 0.000, 0.000, 0.000, 03:02:51.819
143, 34536.86, 9080.26, 187500.00, 187500.00, 187500.00, 187500.00, 187500.00, 187500.00, 0.000, 0.000, 0.000, 03:02:51.819
144, 34537.07, 9048.86, 187500.00, 187500.00, 187500.00, 187500.00, 187500.00, 187500.00, 0.000, 0.000, 0.000, 03:02:51.819
145, 34556.87, 9100.58, 187500.00, 187500.00, 187500.00, 187500.00, 187500.00, 187500.00, 0.198, 0.508, -0.872, 03:02:51.819
146, 34549.05, 9096.91, 187500.00, 187500.00, 187500.00, 187500.00, 187500.00, 187500.00, 0.000, 0.000, 0.000, 03:02:51.819
147, 34530.61, 9087.79, 187500.00, 187500.00, 187500.00, 187500.00, 187500.00, 187500.00, 0.000, 0.000, 0.000, 03:02:51.819
148, 34533.82, 9093.85, 187500.00, 187500.00, 187500.00, 187500.00, 187500.00, 187500.00, 0.000, 0.000, 0.000, 03:02:51.819
149, 34557.23, 9111.51, 187500.00, 187500.00, 187500.00, 187500.00, 187500.00, 187500.00, 0.000, 0.000, 0.000, 03:02:51.819
150, 34556.60, 9115.09, 187500.00, 187500.00, 187500.00, 187500.00, 187500.00, 187500.00, 0.000, 0.000, 0.000, 03:02:51.819
151, 34542.56, 9116.47, 187500.00, 187500.00, 187500.00, 187500.00, 187500.00, 187500.00, 0.000, 0.000, 0.000, 03:02:51.820
152, 34537.36, 9102.26, 187500.00, 187500.00, 187500.00, 187500.00, 187500.00, 187500.00, 0.000, 0.000, 0.000, 03:02:51.820
153, 34560.15, 9114.46, 187500.00, 187500.00, 187500.00, 187500.00, 187500.00, 187500.00, 0.000, 0.000, 0.000, 03:02:51.820
154, 34554.34, 9111.29, 187500.00, 187500.00, 187500.00, 187500.00, 187500.00, 187500.00, 0.000, 0.000, 0.000, 03:02:51.820
155, 34523.65, 9086.34, 187500.00, 187500.00, 187500.00, 187500.00, 187500.00, 187500.00, 0.194, 0.506, -0.876, 03:02:51.820
156, 34507.14, 9062.00, 187500.00, 187500.00, 187500.00, 187500.00, 187500.00, 187500.00, 0.000, 0.000, 0.000, 03:02:51.820
157, 34539.21, 9102.70, 187500.00, 187500.00, 187500.00, 187500.00, 187500.00, 187500.00, 0.000, 0.000, 0.000, 03:02:51.821
158, 34546.39, 9103.49, 187500.00, 187500.00, 187500.00, 187500.00, 187500.00, 187500.00, 0.000, 0.000, 0.000, 03:02:51.821
159, 34538.20, 9089.85, 187500.00, 187500.00, 187500.00, 187500.00, 187500.00, 187500.00, 0.000, 0.000, 0.000, 03:02:51.821
160, 34527.99, 9065.69, 187500.00, 187500.00, 187500.00, 187500.00, 187500.00, 187500.00, 0.000, 0.000, 0.000, 03:02:51.821
161, 34544.75, 9091.48, 187500.00, 187500.00, 187500.00, 187500.00, 187500.00, 187500.00, 0.000, 0.000, 0.000, 03:02:51.821
162, 34562.75, 9098.37, 187500.00, 187500.00, 187500.00, 187500.00, 187500.00, 187500.00, 0.000, 0.000, 0.000, 03:02:51.821
163, 34548.40, 9081.56, 187500.00, 187500.00, 187500.00, 187500.00, 187500.00, 187500.00, 0.000, 0.000, 0.000, 03:02:51.821
164, 34522.69, 9092.56, 187500.00, 187500.00, 187500.00, 187500.00, 187500.00, 187500.00, 0.000, 0.000, 0.000, 03:02:51.821
165, 34532.59, 9098.84, 187500.00, 187500.00, 187500.00, 187500.00, 187500.00, 187500.00, 0.204, 0.514, -0.874, 03:02:51.821
166, 34557.00, 9119.24, 187500.00, 187500.00, 187500.00, 187500.00, 187500.00, 187500.00, 0.000, 0.000, 0.000, 03:02:51.821
167, 34554.79, 9103.44, 187500.00, 187500.00, 187500.00, 187500.00, 187500.00, 187500.00, 0.000, 0.000, 0.000, 03:02:51.821
168, 34529.93, 9077.00, 187500.00, 187500.00, 187500.00, 187500.00, 187500.00, 187500.00, 0.000, 0.000, 0.000, 03:02:51.821
169, 34532.97, 9074.50, 187500.00, 187500.00, 187500.00, 187500.00, 187500.00, 187500.00, 0.000, 0.000, 0.000, 03:02:51.821
170, 34559.39, 9117.68, 187500.00, 187500.00, 187500.00, 187500.00, 187500.00, 187500.00, 0.000, 0.000, 0.000, 03:02:51.822
171, 34557.34, 9110.88, 187500.00, 187500.00, 187500.00, 187500.00, 187500.00, 187500.00, 0.000, 0.000, 0.000, 03:02:51.822
172, 34532.86, 9075.41, 187500.00, 187500.00, 187500.00, 187500.00, 187500.00, 187500.00, 0.000, 0.000, 0.000, 03:02:51.822
173, 34520.01, 9082.38, 187500.00, 187500.00, 187500.00, 187500.00, 187500.00, 187500.00, 0.000, 0.000, 0.000, 03:02:51.822
174, 34550.81, 9092.00, 187500.00, 187500.00, 187500.00, 187500.00, 187500.00, 187500.00, 0.000, 0.000, 0.000, 03:02:51.822
175, 34546.65, 9103.49, 187500.00, 187500.00, 187500.00, 187500.00, 187500.00, 187500.00, 0.206, 0.514, -0.874, 03:02:51.822
176, 34527.54, 9098.01, 187500.00, 187500.00, 187500.00, 187500.00, 187500.00, 187500.00, 0.000, 0.000, 0.000, 03:02:51.822
177, 34519.43, 9087.68, 187500.00, 187500.00, 187500.00, 187500.00, 187500.00, 187500.00, 0.000, 0.000, 0.000, 03:02:51.822
178, 34550.25, 9110.33, 187500.00, 187500.00, 187500.00, 187500.00, 187500.00, 187500.00, 0.000, 0.000, 0.000, 03:02:51.822
179, 34550.97, 9110.77, 187500.00, 187500.00, 187500.00, 187500.00, 187500.00, 187500.00, 0.000, 0.000, 0.000, 03:02:51.822
180, 34537.89, 9084.78, 187500.00, 187500.00, 187500.00, 187500.00, 187500.00, 187500.00, 0.000, 0.000, 0.000, 03:02:51.823
181, 34512.52, 9059.14, 187500.00, 187500.00, 187500.00, 187500.00, 187500.00, 187500.00, 0.000, 0.000, 0.000, 03:02:51.823
182, 34539.59, 9095.89, 187500.00, 187500.00, 187500.00, 187500.00, 187500.00, 187500.00, 0.000, 0.000, 0.000, 03:02:51.823
183, 34560.40, 9120.76, 187500.00, 187500.00, 187500.00, 187500.00, 187500.00, 187500.00, 0.000, 0.000, 0.000, 03:02:51.823
184, 34547.82, 9108.74, 187500.00, 187500.00, 187500.00, 187500.00, 187500.00, 187500.00, 0.000, 0.000, 0.000, 03:02:51.823
185, 34516.39, 9089.92, 187500.00, 187500.00, 187500.00, 187500.00, 187500.00, 187500.00, 0.204, 0.512, -0.876, 03:02:51.823
186, 34537.54, 9100.27, 187500.00, 187500.00, 187500.00, 187500.00, 187500.00, 187500.00, 0.000, 0.000, 0.000, 03:02:51.823
187, 34550.39, 9108.85, 187500.00, 187500.00, 187500.00, 187500.00, 187500.00, 187500.00, 0.000, 0.000, 0.000, 03:02:51.823
188, 34548.96, 9101.38, 187500.00, 187500.00, 187500.00, 187500.00, 187500.00, 187500.00, 0.000, 0.000, 0.000, 03:02:51.823
189, 34520.66, 9065.84, 187500.00, 187500.00, 187500.00, 187500.00, 187500.00, 187500.00, 0.000, 0.000, 0.000, 03:02:51.824
190, 34532.46, 9079.97, 187500.00, 187500.00, 187500.00, 187500.00, 187500.00, 187500.00, 0.000, 0.000, 0.000, 03:02:51.824
191, 34546.54, 9106.21, 187500.00, 187500.00, 187500.00, 187500.00, 187500.00, 187500.00, 0.000, 0.000, 0.000, 03:02:51.824
192, 34544.64, 9105.38, 187500.00, 187500.00, 187500.00, 187500.00, 187500.00, 187500.00, 0.000, 0.000, 0.000, 03:02:51.824
193, 34519.32, 9100.76, 187500.00, 187500.00, 187500.00, 187500.00, 187500.00, 187500.00, 0.000, 0.000, 0.000, 03:02:51.824
194, 34511.41, 9081.76, 187500.00, 187500.00, 187500.00, 187500.00, 187500.00, 187500.00, 0.000, 0.000, 0.000, 03:02:51.824
195, 34536.71, 9113.63, 187500.00, 187500.00, 187500.00, 187500.00, 187500.00, 187500.00, 0.202, 0.508, -0.876, 03:02:51.824
196, 34522.07, 9102.39, 187500.00, 187500.00, 187500.00, 187500.00, 187500.00, 187500.00, 0.000, 0.000, 0.000, 03:02:51.824
197, 34498.57, 9072.37, 187500.00, 187500.00, 187500.00, 187500.00, 187500.00, 187500.00, 0.000, 0.000, 0.000, 03:02:51.824
198, 34504.48, 9075.57, 187500.00, 187500.00, 187500.00, 187500.00, 187500.00, 187500.00, 0.000, 0.000, 0.000, 03:02:51.824
199, 34541.04, 9108.16, 187500.00, 187500.00, 187500.00, 187500.00, 187500.00, 187500.00, 0.000, 0.000, 0.000, 03:02:51.824
200, 34540.29, 9095.17, 187500.00, 187500.00, 187500.00, 187500.00, 187500.00, 187500.00, 0.000, 0.000, 0.000, 03:02:51.825
201, 34513.17, 9051.94, 187500.00, 187500.00, 187500.00, 187500.00, 187500.00, 187500.00, 0.000, 0.000, 0.000, 03:02:51.825
202, 34500.39, 9063.99, 187500.00, 187500.00, 187500.00, 187500.00, 187500.00, 187500.00, 0.000, 0.000, 0.000, 03:02:51.825
203, 34535.57, 9100.11, 187500.00, 187500.00, 187500.00, 187500.00, 187500.00, 187500.00, 0.000, 0.000, 0.000, 03:02:51.825
204, 34546.95, 9114.21, 187500.00, 187500.00, 187500.00, 187500.00, 187500.00, 187500.00, 0.204, 0.504, -0.874, 03:02:51.825
205, 34528.66, 9101.56, 187500.00, 187500.00, 187500.00, 187500.00, 187500.00, 187500.00, 0.000, 0.000, 0.000, 03:02:51.825
206, 34505.64, 9072.42, 187500.00, 187500.00, 187500.00, 187500.00, 187500.00, 187500.00, 0.000, 0.000, 0.000, 03:02:51.825
207, 34530.23, 9089.78, 187500.00, 187500.00, 187500.00, 187500.00, 187500.00, 187500.00, 0.000, 0.000, 0.000, 03:02:51.825
208, 34540.80, 9119.74, 187500.00, 187500.00, 187500.00, 187500.00, 187500.00, 187500.00, 0.000, 0.000, 0.000, 03:02:51.825
209, 34533.76, 9099.37, 187500.00, 187500.00, 187500.00, 187500.00, 187500.00, 187500.00, 0.000, 0.000, 0.000, 03:02:51.825
210, 34512.41, 9072.10, 187500.00, 187500.00, 187500.00, 187500.00, 187500.00, 187500.00, 0.000, 0.000, 0.000, 03:02:52.295
211, 34521.66, 9075.43, 187500.00, 187500.00, 187500.00, 187500.00, 187500.00, 187500.00, 0.000, 0.000, 0.000, 03:02:52.295
212, 34538.00, 9094.54, 187500.00, 187500.00, 187500.00, 187500.00, 187500.00, 187500.00, 0.000, 0.000, 0.000, 03:02:52.295
213, 34527.92, 9082.27, 187500.00, 187500.00, 187500.00, 187500.00, 187500.00, 187500.00, 0.000, 0.000, 0.000, 03:02:52.295
214, 34500.77, 9070.36, 187500.00, 187500.00, 187500.00, 187500.00, 187500.00, 187500.00, 0.200, 0.504, -0.876, 03:02:52.295
215, 34506.53, 9085.42, 187500.00, 187500.00, 187500.00, 187500.00, 187500.00, 187500.00, 0.000, 0.000, 0.000, 03:02:52.295
216, 34522.96, 9092.89, 187500.00, 187500.00, 187500.00, 187500.00, 187500.00, 187500.00, 0.000, 0.000, 0.000, 03:02:52.295
217, 34512.16, 9083.77, 187500.00, 187500.00, 187500.00, 187500.00, 187500.00, 187500.00, 0.000, 0.000, 0.000, 03:02:52.295
218, 34482.97, 9065.38, 187500.00, 187500.00, 187500.00, 187500.00, 187500.00, 187500.00, 0.000, 0.000, 0.000, 03:02:52.295
219, 34493.52, 9076.91, 187500.00, 187500.00, 187500.00, 187500.00, 187500.00, 187500.00, 0.000, 0.000, 0.000, 03:02:52.296
220, 34523.45, 9077.76, 187500.00, 187500.00, 187500.00, 187500.00, 187500.00, 187500.00, 0.000, 0.000, 0.000, 03:02:52.296
221, 34522.65, 9070.20, 187500.00, 187500.00, 187500.00, 187500.00, 187500.00, 187500.00, 0.000, 0.000, 0.000, 03:02:52.296
222, 34501.23, 9091.86, 187500.00, 187500.00, 187500.00, 187500.00, 187500.00, 187500.00, 0.000, 0.000, 0.000, 03:02:52.296
223, 34496.79, 9102.57, 187500.00, 187500.00, 187500.00, 187500.00, 187500.00, 187500.00, 0.000, 0.000, 0.000, 03:02:52.296
224, 34526.02, 9112.83, 187500.00, 187500.00, 187500.00, 187500.00, 187500.00, 187500.00, 0.196, 0.510, -0.876, 03:02:52.296
225, 34519.90, 9098.25, 187500.00, 187500.00, 187500.00, 187500.00, 187500.00, 187500.00, 0.000, 0.000, 0.000, 03:02:52.296
226, 34511.05, 9077.98, 187500.00, 187500.00, 187500.00, 187500.00, 187500.00, 187500.00, 0.000, 0.000, 0.000, 03:02:52.296
227, 34504.77, 9069.82, 187500.00, 187500.00, 187500.00, 187500.00, 187500.00, 187500.00, 0.000, 0.000, 0.000, 03:02:52.296
228, 34527.50, 9090.10, 187500.00, 187500.00, 187500.00, 187500.00, 187500.00, 187500.00, 0.000, 0.000, 0.000, 03:02:52.297
229, 34537.89, 9091.42, 187500.00, 187500.00, 187500.00, 187500.00, 187500.00, 187500.00, 0.000, 0.000, 0.000, 03:02:52.297
230, 34522.96, 9085.42, 187500.00, 187500.00, 187500.00, 187500.00, 187500.00, 187500.00, 0.000, 0.000, 0.000, 03:02:52.297
231, 34495.80, 9075.97, 187500.00, 187500.00, 187500.00, 187500.00, 187500.00, 187500.00, 0.000, 0.000, 0.000, 03:02:52.297
232, 34503.83, 9074.90, 187500.00, 187500.00, 187500.00, 187500.00, 187500.00, 187500.00, 0.000, 0.000, 0.000, 03:02:52.297
233, 34519.74, 9087.97, 187500.00, 187500.00, 187500.00, 187500.00, 187500.00, 187500.00, 0.000, 0.000, 0.000, 03:02:52.297
234, 34515.16, 9095.68, 187500.00, 187500.00, 187500.00, 187500.00, 187500.00, 187500.00, 0.202, 0.510, -0.876, 03:02:52.297
235, 34495.09, 9052.55, 187500.00, 187500.00, 187500.00, 187500.00, 187500.00, 187500.00, 0.000, 0.000, 0.000, 03:02:52.297
236, 34517.84, 9070.25, 187500.00, 187500.00, 187500.00, 187500.00, 187500.00, 187500.00, 0.000, 0.000, 0.000, 03:02:52.298
237, 34537.54, 9113.05, 187500.00, 187500.00, 187500.00, 187500.00, 187500.00, 187500.00, 0.000, 0.000, 0.000, 03:02:52.298
238, 34522.96, 9088.73, 187500.00, 187500.00, 187500.00, 187500.00, 187500.00, 187500.00, 0.000, 0.000, 0.000, 03:02:52.298
239, 34499.11, 9057.98, 187500.00, 187500.00, 187500.00, 187500.00, 187500.00, 187500.00, 0.000, 0.000, 0.000, 03:02:52.298
240, 34510.49, 9076.64, 187500.00, 187500.00, 187500.00, 187500.00, 187500.00, 187500.00, 0.000, 0.000, 0.000, 03:02:52.298
241, 34542.07, 9117.03, 187500.00, 187500.00, 187500.00, 187500.00, 187500.00, 187500.00, 0.000, 0.000, 0.000, 03:02:52.298
242, 34530.67, 9119.20, 187500.00, 187500.00, 187500.00, 187500.00, 187500.00, 187500.00, 0.000, 0.000, 0.000, 03:02:52.298
243, 34499.09, 9081.04, 187500.00, 187500.00, 187500.00, 187500.00, 187500.00, 187500.00, 0.000, 0.000, 0.000, 03:02:52.298
244, 34495.34, 9063.27, 187500.00, 187500.00, 187500.00, 187500.00, 187500.00, 187500.00, 0.204, 0.508, -0.876, 03:02:52.299
245, 34521.82, 9093.54, 187500.00, 187500.00, 187500.00, 187500.00, 187500.00, 187500.00, 0.000, 0.000, 0.000, 03:02:52.299
246, 34521.11, 9093.78, 187500.00, 187500.00, 187500.00, 187500.00, 187500.00, 187500.00, 0.000, 0.000, 0.000, 03:02:52.299
247, 34505.53, 9094.19, 187500.00, 187500.00, 187500.00, 187500.00, 187500.00, 187500.00, 0.000, 0.000, 0.000, 03:02:52.299
248, 34509.71, 9082.16, 187500.00, 187500.00, 187500.00, 187500.00, 187500.00, 187500.00, 0.000, 0.000, 0.000, 03:02:52.299
249, 34543.37, 9104.25, 187500.00, 187500.00, 187500.00, 187500.00, 187500.00, 187500.00, 0.000, 0.000, 0.000, 03:02:52.299
250, 34539.86, 9102.19, 187500.00, 187500.00, 187500.00, 187500.00, 187500.00, 187500.00, 0.000, 0.000, 0.000, 03:02:52.299
251, 34510.29, 9071.05, 187500.00, 187500.00, 187500.00, 187500.00, 187500.00, 187500.00, 0.000, 0.000, 0.000, 03:02:52.299
252, 34488.14, 9047.29, 187500.00, 187500.00, 187500.00, 187500.00, 187500.00, 187500.00, 0.000, 0.000, 0.000, 03:02:52.300
253, 34517.53, 9073.98, 187500.00, 187500.00, 187500.00, 187500.00, 187500.00, 187500.00, 0.000, 0.000, 0.000, 03:02:52.300
254, 34521.93, 9089.07, 187500.00, 187500.00, 187500.00, 187500.00, 187500.00, 187500.00, 0.200, 0.504, -0.874, 03:02:52.300
255, 34514.27, 9063.23, 187500.00, 187500.00, 187500.00, 187500.00, 187500.00, 187500.00, 0.000, 0.000, 0.000, 03:02:52.300
0, 34492.54, 9047.18, 187500.00, 187500.00, 187500.00, 187500.00, 187500.00, 187500.00, 0.000, 0.000, 0.000, 03:02:52.300
1, 34520.41, 9098.86, 187500.00, 187500.00, 187500.00, 187500.00, 187500.00, 187500.00, 0.000, 0.000, 0.000, 03:02:52.300
2, 34536.95, 9119.60, 187500.00, 187500.00, 187500.00, 187500.00, 187500.00, 187500.00, 0.000, 0.000, 0.000, 03:02:52.300
3, 34522.34, 9084.20, 187500.00, 187500.00, 187500.00, 187500.00, 187500.00, 187500.00, 0.000, 0.000, 0.000, 03:02:52.300
4, 34496.03, 9058.60, 187500.00, 187500.00, 187500.00, 187500.00, 187500.00, 187500.00, 0.000, 0.000, 0.000, 03:02:52.300
5, 34511.52, 9082.59, 187500.00, 187500.00, 187500.00, 187500.00, 187500.00, 187500.00, 0.000, 0.000, 0.000, 03:02:52.300
6, 34531.93, 9096.36, 187500.00, 187500.00, 187500.00, 187500.00, 187500.00, 187500.00, 0.000, 0.000, 0.000, 03:02:52.301
7, 34520.91, 9085.69, 187500.00, 187500.00, 187500.00, 187500.00, 187500.00, 187500.00, 0.200, 0.504, -0.874, 03:02:52.301
8, 34497.97, 9077.42, 187500.00, 187500.00, 187500.00, 187500.00, 187500.00, 187500.00, 0.000, 0.000, 0.000, 03:02:52.301
9, 34506.96, 9067.03, 187500.00, 187500.00, 187500.00, 187500.00, 187500.00, 187500.00, 0.000, 0.000, 0.000, 03:02:52.301
10, 34530.34, 9085.45, 187500.00, 187500.00, 187500.00, 187500.00, 187500.00, 187500.00, 0.000, 0.000, 0.000, 03:02:52.301
11, 34521.55, 9101.41, 187500.00, 187500.00, 187500.00, 187500.00, 187500.00, 187500.00, 0.000, 0.000, 0.000, 03:02:52.301
12, 34502.62, 9076.73, 187500.00, 187500.00, 187500.00, 187500.00, 187500.00, 187500.00, 0.000, 0.000, 0.000, 03:02:52.301
13, 34500.54, 9073.42, 187500.00, 187500.00, 187500.00, 187500.00, 187500.00, 187500.00, 0.000, 0.000, 0.000, 03:02:52.301
14, 34534.47, 9098.61, 187500.00, 187500.00, 187500.00, 187500.00, 187500.00, 187500.00, 0.000, 0.000, 0.000, 03:02:52.301
15, 34541.69, 9098.05, 187500.00, 187500.00, 187500.00, 187500.00, 187500.00, 187500.00, 0.000, 0.000, 0.000, 03:02:52.301
16, 34517.60, 9063.68, 187500.00, 187500.00, 187500.00, 187500.00, 187500.00, 187500.00, 0.000, 0.000, 0.000, 03:02:52.302
17, 34505.08, 9062.89, 187500.00, 187500.00, 187500.00, 187500.00, 187500.00, 187500.00, 0.198, 0.508, -0.874, 03:02:52.302
18, 34522.00, 9074.45, 187500.00, 187500.00, 187500.00, 187500.00, 187500.00, 187500.00, 0.000, 0.000, 0.000, 03:02:52.302
19, 34520.59, 9100.47, 187500.00, 187500.00, 187500.00, 187500.00, 187500.00, 187500.00, 0.000, 0.000, 0.000, 03:02:52.302
20, 34516.10, 9085.96, 187500.00, 187500.00, 187500.00, 187500.00, 187500.00, 187500.00, 0.000, 0.000, 0.000, 03:02:52.302
21, 34501.35, 9069.22, 187500.00, 187500.00, 187500.00, 187500.00, 187500.00, 187500.00, 0.000, 0.000, 0.000, 03:02:52.302
22, 34530.00, 9096.47, 187500.00, 187500.00, 187500.00, 187500.00, 187500.00, 187500.00, 0.000, 0.000, 0.000, 03:02:52.303
23, 34539.88, 9089.45, 187500.00, 187500.00, 187500.00, 187500.00, 187500.00, 187500.00, 0.000, 0.000, 0.000, 03:02:52.303
24, 34518.78, 9070.34, 187500.00, 187500.00, 187500.00, 187500.00, 187500.00, 187500.00, 0.000, 0.000, 0.000, 03:02:52.303
25, 34500.00, 9056.21, 187500.00, 187500.00, 187500.00, 187500.00, 187500.00, 187500.00, 0.000, 0.000, 0.000, 03:02:52.303
26, 34518.96, 9078.00, 187500.00, 187500.00, 187500.00, 187500.00, 187500.00, 187500.00, 0.000, 0.000, 0.000, 03:02:52.303
27, 34525.06, 9096.42, 187500.00, 187500.00, 187500.00, 187500.00, 187500.00, 187500.00, 0.204, 0.504, -0.874, 03:02:52.303
28, 34516.05, 9074.12, 187500.00, 187500.00, 187500.00, 187500.00, 187500.00, 187500.00, 0.000, 0.000, 0.000, 03:02:52.303
29, 34497.99, 9049.06, 187500.00, 187500.00, 187500.00, 187500.00, 187500.00, 187500.00, 0.000, 0.000, 0.000, 03:02:52.303
30, 34506.93, 9059.52, 187500.00, 187500.00, 187500.00, 187500.00, 187500.00, 187500.00, 0.000, 0.000, 0.000, 03:02:52.303
31, 34525.40, 9061.24, 187500.00, 187500.00, 187500.00, 187500.00, 187500.00, 187500.00, 0.000, 0.000, 0.000, 03:02:52.304
32, 34525.87, 9109.36, 187500.00, 187500.00, 187500.00, 187500.00, 187500.00, 187500.00, 0.000, 0.000, 0.000, 03:02:52.304
33, 34505.64, 9091.21, 187500.00, 187500.00, 187500.00, 187500.00, 187500.00, 187500.00, 0.000, 0.000, 0.000, 03:02:52.304
34, 34504.27, 9080.84, 187500.00, 187500.00, 187500.00, 187500.00, 187500.00, 187500.00, 0.000, 0.000, 0.000, 03:02:52.304
35, 34537.87, 9100.02, 187500.00, 187500.00, 187500.00, 187500.00, 187500.00, 187500.00, 0.000, 0.000, 0.000, 03:02:52.304
36, 34533.96, 9088.98, 187500.00, 187500.00, 187500.00, 187500.00, 187500.00, 187500.00, 0.000, 0.000, 0.000, 03:02:52.304
37, 34511.83, 9066.29, 187500.00, 187500.00, 187500.00, 187500.00, 187500.00, 187500.00, 0.194, 0.502, -0.880, 03:02:52.304
38, 34504.52, 9068.17, 187500.00, 187500.00, 187500.00, 187500.00, 187500.00, 187500.00, 0.000, 0.000, 0.000, 03:02:52.304
39, 34537.31, 9098.63, 187500.00, 187500.00, 187500.00, 187500.00, 187500.00, 187500.00, 0.000, 0.000, 0.000, 03:02:52.305
40, 34535.90, 9090.72, 187500.00, 187500.00, 187500.00, 187500.00, 187500.00, 187500.00, 0.000, 0.000, 0.000, 03:02:52.305
41, 34518.42, 9064.88, 187500.00, 187500.00, 187500.00, 187500.00, 187500.00, 187500.00, 0.000, 0.000, 0.000, 03:02:52.305
42, 34499.34, 9046.89, 187500.00, 187500.00, 187500.00, 187500.00, 187500.00, 187500.00, 0.000, 0.000, 0.000, 03:02:52.305
43, 34524.19, 9086.86, 187500.00, 187500.00, 187500.00, 187500.00, 187500.00, 187500.00, 0.000, 0.000, 0.000, 03:02:52.305
44, 34529.62, 9090.50, 187500.00, 187500.00, 187500.00, 187500.00, 187500.00, 187500.00, 0.000, 0.000, 0.000, 03:02:52.305
45, 34514.02, 9069.67, 187500.00, 187500.00, 187500.00, 187500.00, 187500.00, 187500.00, 0.000, 0.000, 0.000, 03:02:52.305
46, 34502.75, 9061.11, 187500.00, 187500.00, 187500.00, 187500.00, 187500.00, 187500.00, 0.000, 0.000, 0.000, 03:02:52.305
47, 34527.59, 9074.03, 187500.00, 187500.00, 187500.00, 187500.00, 187500.00, 187500.00, 0.198, 0.498, -0.876, 03:02:52.305
48, 34535.23, 9076.93, 187500.00, 187500.00, 187500.00, 187500.00, 187500.00, 187500.00, 0.000, 0.000, 0.000, 03:02:52.305
49, 34519.23, 9056.30, 187500.00, 187500.00, 187500.00, 187500.00, 187500.00, 187500.00, 0.000, 0.000, 0.000, 03:02:52.306
50, 34488.50, 9029.97, 187500.00, 187500.00, 187500.00, 187500.00, 187500.00, 187500.00, 0.000, 0.000, 0.000, 03:02:52.306
51, 34511.98, 9060.73, 187500.00, 187500.00, 187500.00, 187500.00, 187500.00, 187500.00, 0.000, 0.000, 0.000, 03:02:52.306
52, 34534.85, 9101.03, 187500.00, 187500.00, 187500.00, 187500.00, 187500.00, 187500.00, 0.000, 0.000, 0.000, 03:02:52.306
53, 34516.66, 9094.19, 187500.00, 187500.00, 187500.00, 187500.00, 187500.00, 187500.00, 0.000, 0.000, 0.000, 03:02:52.306
54, 34491.13, 9056.77, 187500.00, 187500.00, 187500.00, 187500.00, 187500.00, 187500.00, 0.000, 0.000, 0.000, 03:02:52.306
55, 34503.22, 9069.73, 187500.00, 187500.00, 187500.00, 187500.00, 187500.00, 187500.00, 0.000, 0.000, 0.000, 03:02:52.306
56, 34528.06, 9090.52, 187500.00, 187500.00, 187500.00, 187500.00, 187500.00, 187500.00, 0.000, 0.000, 0.000, 03:02:52.306
57, 34528.10, 9080.71, 187500.00, 187500.00, 187500.00, 187500.00, 187500.00, 187500.00, 0.200, 0.506, -0.872, 03:02:52.306
58, 34510.78, 9066.16, 187500.00, 187500.00, 187500.00, 187500.00, 187500.00, 187500.00, 0.000, 0.000, 0.000, 03:02:52.307
59, 34513.95, 9068.01, 187500.00, 187500.00, 187500.00, 187500.00, 187500.00, 187500.00, 0.000, 0.000, 0.000, 03:02:52.307
60, 34543.46, 9084.22, 187500.00, 187500.00, 187500.00, 187500.00, 187500.00, 187500.00, 0.000, 0.000, 0.000, 03:02:52.307
61, 34535.79, 9097.07, 187500.00, 187500.00, 187500.00, 187500.00, 187500.00, 187500.00, 0.000, 0.000, 0.000, 03:02:52.307
62, 34503.07, 9065.29, 187500.00, 187500.00, 187500.00, 187500.00, 187500.00, 187500.00, 0.000, 0.000, 0.000, 03:02:52.307
63, 34491.18, 9053.37, 187500.00, 187500.00, 187500.00, 187500.00, 187500.00, 187500.00, 0.000, 0.000, 0.000, 03:02:52.307
64, 34518.89, 9077.38, 187500.00, 187500.00, 187500.00, 187500.00, 187500.00, 187500.00, 0.000, 0.000, 0.000, 03:02:52.307
65, 34532.97, 9086.34, 187500.00, 187500.00, 187500.00, 187500.00, 187500.00, 187500.00, 0.000, 0.000, 0.000, 03:02:52.307
66, 34507.61, 9052.19, 187500.00, 187500.00, 187500.00, 187500.00, 187500.00, 187500.00, 0.000, 0.000, 0.000, 03:02:52.307
67, 34488.90, 9033.50, 187500.00, 187500.00, 187500.00, 187500.00, 187500.00, 187500.00, 0.196, 0.506, -0.876, 03:02:52.308
68, 34519.16, 9081.27, 187500.00, 187500.00, 187500.00, 187500.00, 187500.00, 187500.00, 0.000, 0.000, 0.000, 03:02:52.308
69, 34523.95, 9085.00, 187500.00, 187500.00, 187500.00, 187500.00, 187500.00, 187500.00, 0.000, 0.000, 0.000, 03:02:52.308
70, 34503.89, 9059.85, 187500.00, 187500.00, 187500.00, 187500.00, 187500.00, 187500.00, 0.000, 0.000, 0.000, 03:02:52.308
71, 34485.16, 9049.39, 187500.00, 187500.00, 187500.00, 187500.00, 187500.00, 187500.00, 0.000, 0.000, 0.000, 03:02:52.308
72, 34518.11, 9082.59, 187500.00, 187500.00, 187500.00, 187500.00, 187500.00, 187500.00, 0.000, 0.000, 0.000, 03:02:52.308
73, 34527.23, 9080.33, 187500.00, 187500.00, 187500.00, 187500.00, 187500.00, 187500.00, 0.000, 0.000, 0.000, 03:02:52.308
74, 34512.19, 9065.67, 187500.00, 187500.00, 187500.00, 187500.00, 187500.00, 187500.00, 0.000, 0.000, 0.000, 03:02:52.774
75, 34486.01, 9039.96, 187500.00, 187500.00, 187500.00, 187500.00, 187500.00, 187500.00, 0.000, 0.000, 0.000, 03:02:52.774
76, 34505.46, 9046.00, 187500.00, 187500.00, 187500.00, 187500.00, 187500.00, 187500.00, 0.192, 0.508, -0.878, 03:02:52.774
77, 34524.86, 9054.96, 187500.00, 187500.00, 187500.00, 187500.00, 187500.00, 187500.00, 0.000, 0.000, 0.000, 03:02:52.775
78, 34512.16, 9061.64, 187500.00, 187500.00, 187500.00, 187500.00, 187500.00, 187500.00, 0.000, 0.000, 0.000, 03:02:52.775
79, 34494.11, 9067.66, 187500.00, 187500.00, 187500.00, 187500.00, 187500.00, 187500.00, 0.000, 0.000, 0.000, 03:02:52.775
80, 34511.45, 9072.86, 187500.00, 187500.00, 187500.00, 187500.00, 187500.00, 187500.00, 0.000, 0.000, 0.000, 03:02:52.775
81, 34534.25, 9094.39, 187500.00, 187500.00, 187500.00, 187500.00, 187500.00, 187500.00, 0.000, 0.000, 0.000, 03:02:52.775
82, 34526.80, 9081.60, 187500.00, 187500.00, 187500.00, 187500.00, 187500.00, 187500.00, 0.000, 0.000, 0.000, 03:02:52.775
83, 34495.45, 9044.59, 187500.00, 187500.00, 187500.00, 187500.00, 187500.00, 187500.00, 0.000, 0.000, 0.000, 03:02:52.775
84, 34498.44, 9031.47, 187500.00, 187500.00, 187500.00, 187500.00, 187500.00, 187500.00, 0.000, 0.000, 0.000, 03:02:52.776
85, 34527.99, 9084.20, 187500.00, 187500.00, 187500.00, 187500.00, 187500.00, 187500.00, 0.000, 0.000, 0.000, 03:02:52.776
86, 34534.52, 9092.71, 187500.00, 187500.00, 187500.00, 187500.00, 187500.00, 187500.00, 0.200, 0.504, -0.882, 03:02:52.776
87, 34504.57, 9042.51, 187500.00, 187500.00, 187500.00, 187500.00, 187500.00, 187500.00, 0.000, 0.000, 0.000, 03:02:52.776
88, 34494.29, 9032.63, 187500.00, 187500.00, 187500.00, 187500.00, 187500.00, 187500.00, 0.000, 0.000, 0.000, 03:02:52.776
89, 34517.02, 9064.37, 187500.00, 187500.00, 187500.00, 187500.00, 187500.00, 187500.00, 0.000, 0.000, 0.000, 03:02:52.776
90, 34519.90, 9081.25, 187500.00, 187500.00, 187500.00, 187500.00, 187500.00, 187500.00, 0.000, 0.000, 0.000, 03:02:52.777
91, 34497.03, 9050.85, 187500.00, 187500.00, 187500.00, 187500.00, 187500.00, 187500.00, 0.000, 0.000, 0.000, 03:02:52.777
92, 34484.34, 9042.24, 187500.00, 187500.00, 187500.00, 187500.00, 187500.00, 187500.00, 0.000, 0.000, 0.000, 03:02:52.777
93, 34517.75, 9080.75, 187500.00, 187500.00, 187500.00, 187500.00, 187500.00, 187500.00, 0.000, 0.000, 0.000, 03:02:52.777
94, 34530.47, 9086.27, 187500.00, 187500.00, 187500.00, 187500.00, 187500.00, 187500.00, 0.000, 0.000, 0.000, 03:02:52.777
95, 34525.96, 9063.54, 187500.00, 187500.00, 187500.00, 187500.00, 187500.00, 187500.00, 0.000, 0.000, 0.000, 03:02:52.777
96, 34501.10, 9057.69, 187500.00, 187500.00, 187500.00, 187500.00, 187500.00, 187500.00, 0.200, 0.506, -0.876, 03:02:52.777
97, 34521.11, 9075.77, 187500.00, 187500.00, 187500.00, 187500.00, 187500.00, 187500.00, 0.000, 0.000, 0.000, 03:02:52.777
98, 34538.81, 9099.91, 187500.00, 187500.00, 187500.00, 187500.00, 187500.00, 187500.00, 0.000, 0.000, 0.000, 03:02:52.777
99, 34527.81, 9066.09, 187500.00, 187500.00, 187500.00, 187500.00, 187500.00, 187500.00, 0.000, 0.000, 0.000, 03:02:52.777
100, 34506.60, 9054.74, 187500.00, 187500.00, 187500.00, 187500.00, 187500.00, 187500.00, 0.000, 0.000, 0.000, 03:02:52.778
101, 34530.65, 9107.67, 187500.00, 187500.00, 187500.00, 187500.00, 187500.00, 187500.00, 0.000, 0.000, 0.000, 03:02:52.778
102, 34549.36, 9105.30, 187500.00, 187500.00, 187500.00, 187500.00, 187500.00, 187500.00, 0.000, 0.000, 0.000, 03:02:52.778
103, 34540.24, 9085.74, 187500.00, 187500.00, 187500.00, 187500.00, 187500.00, 187500.00, 0.000, 0.000, 0.000, 03:02:52.778
104, 34522.07, 9080.98, 187500.00, 187500.00, 187500.00, 187500.00, 187500.00, 187500.00, 0.000, 0.000, 0.000, 03:02:52.778
105, 34532.97, 9071.48, 187500.00, 187500.00, 187500.00, 187500.00, 187500.00, 187500.00, 0.000, 0.000, 0.000, 03:02:52.778
106, 34554.34, 9083.06, 187500.00, 187500.00, 187500.00, 187500.00, 187500.00, 187500.00, 0.200, 0.506, -0.878, 03:02:52.778
107, 34539.21, 9089.40, 187500.00, 187500.00, 187500.00, 187500.00, 187500.00, 187500.00, 0.000, 0.000, 0.000, 03:02:52.778
108, 34518.31, 9063.79, 187500.00, 187500.00, 187500.00, 187500.00, 187500.00, 187500.00, 0.000, 0.000, 0.000, 03:02:52.778
109, 34516.39, 9045.26, 187500.00, 187500.00, 187500.00, 187500.00, 187500.00, 187500.00, 0.000, 0.000, 0.000, 03:02:52.778
110, 34536.53, 9111.38, 187500.00, 187500.00, 187500.00, 187500.00, 187500.00, 187500.00, 0.000, 0.000, 0.000, 03:02:52.779
111, 34540.20, 9108.80, 187500.00, 187500.00, 187500.00, 187500.00, 187500.00, 187500.00, 0.000, 0.000, 0.000, 03:02:52.779
112, 34522.43, 9095.44, 187500.00, 187500.00, 187500.00, 187500.00, 187500.00, 187500.00, 0.000, 0.000, 0.000, 03:02:52.779
113, 34509.24, 9064.33, 187500.00, 187500.00, 187500.00, 187500.00, 187500.00, 187500.00, 0.000, 0.000, 0.000, 03:02:52.779
114, 34539.46, 9095.33, 187500.00, 187500.00, 187500.00, 187500.00, 187500.00, 187500.00, 0.000, 0.000, 0.000, 03:02:52.779
115, 34541.02, 9124.32, 187500.00, 187500.00, 187500.00, 187500.00, 187500.00, 187500.00, 0.000, 0.000, 0.000, 03:02:52.779
116, 34524.79, 9101.38, 187500.00, 187500.00, 187500.00, 187500.00, 187500.00, 187500.00, 0.204, 0.506, -0.880, 03:02:52.779
117, 34499.49, 9072.62, 187500.00, 187500.00, 187500.00, 187500.00, 187500.00, 187500.00, 0.000, 0.000, 0.000, 03:02:52.779
118, 34526.49, 9089.27, 187500.00, 187500.00, 187500.00, 187500.00, 187500.00, 187500.00, 0.000, 0.000, 0.000, 03:02:52.779
119, 34537.36, 9090.07, 187500.00, 187500.00, 187500.00, 187500.00, 187500.00, 187500.00, 0.000, 0.000, 0.000, 03:02:52.779
120, 34532.95, 9081.69, 187500.00, 187500.00, 187500.00, 187500.00, 187500.00, 187500.00, 0.000, 0.000, 0.000, 03:02:52.780
121, 34510.20, 9058.71, 187500.00, 187500.00, 187500.00, 187500.00, 187500.00, 187500.00, 0.000, 0.000, 0.000, 03:02:52.780
122, 34534.67, 9099.06, 187500.00, 187500.00, 187500.00, 187500.00, 187500.00, 187500.00, 0.000, 0.000, 0.000, 03:02:52.780
123, 34549.38, 9113.23, 187500.00, 187500.00, 187500.00, 187500.00, 187500.00, 187500.00, 0.000, 0.000, 0.000, 03:02:52.780
124, 34533.89, 9099.46, 187500.00, 187500.00, 187500.00, 187500.00, 187500.00, 187500.00, 0.000, 0.000, 0.000, 03:02:52.780
125, 34514.20, 9074.45, 187500.00, 187500.00, 187500.00, 187500.00, 187500.00, 187500.00, 0.000, 0.000, 0.000, 03:02:52.780
126, 34526.27, 9077.96, 187500.00, 187500.00, 187500.00, 187500.00, 187500.00, 187500.00, 0.202, 0.512, -0.880, 03:02:52.780
127, 34551.84, 9114.26, 187500.00, 187500.00, 187500.00, 187500.00, 187500.00, 187500.00, 0.000, 0.000, 0.000, 03:02:52.780
128, 34538.74, 9084.84, 187500.00, 187500.00, 187500.00, 187500.00, 187500.00, 187500.00, 0.000, 0.000, 0.000, 03:02:52.780
129, 34518.22, 9092.00, 187500.00, 187500.00, 187500.00, 187500.00, 187500.00, 187500.00, 0.000, 0.000, 0.000, 03:02:52.781
130, 34519.43, 9093.05, 187500.00, 187500.00, 187500.00, 187500.00, 187500.00, 187500.00, 0.000, 0.000, 0.000, 03:02:52.781
131, 34545.76, 9113.61, 187500.00, 187500.00, 187500.00, 187500.00, 187500.00, 187500.00, 0.000, 0.000, 0.000, 03:02:52.781
132, 34536.08, 9120.88, 187500.00, 187500.00, 187500.00, 187500.00, 187500.00, 187500.00, 0.000, 0.000, 0.000, 03:02:52.781
133, 34505.86, 9081.94, 187500.00, 187500.00, 187500.00, 187500.00, 187500.00, 187500.00, 0.000, 0.000, 0.000, 03:02:52.781
134, 34509.89, 9094.16, 187500.00, 187500.00, 187500.00, 187500.00, 187500.00, 187500.00, 0.000, 0.000, 0.000, 03:02:52.781
135, 34539.55, 9120.58, 187500.00, 187500.00, 187500.00, 187500.00, 187500.00, 187500.00, 0.198, 0.510, -0.876, 03:02:52.781
136, 34543.12, 9110.91, 187500.00, 187500.00, 187500.00, 187500.00, 187500.00, 187500.00, 0.000, 0.000, 0.000, 03:02:52.781
137, 34509.39, 9086.74, 187500.00, 187500.00, 187500.00, 187500.00, 187500.00, 187500.00, 0.000, 0.000, 0.000, 03:02:52.782
138, 34501.08, 9076.24, 187500.00, 187500.00, 187500.00, 187500.00, 187500.00, 187500.00, 0.000, 0.000, 0.000, 03:02:52.782
139, 34528.32, 9104.56, 187500.00, 187500.00, 187500.00, 187500.00, 187500.00, 187500.00, 0.000, 0.000, 0.000, 03:02:52.782
140, 34531.50, 9102.21, 187500.00, 187500.00, 187500.00, 187500.00, 187500.00, 187500.00, 0.000, 0.000, 0.000, 03:02:52.782
141, 34515.85, 9065.67, 187500.00, 187500.00, 187500.00, 187500.00, 187500.00, 187500.00, 0.000, 0.000, 0.000, 03:02:52.782
142, 34505.97, 9059.70, 187500.00, 187500.00, 187500.00, 187500.00, 187500.00, 187500.00, 0.000, 0.000, 0.000, 03:02:52.782
143, 34530.65, 9125.68, 187500.00, 187500.00, 187500.00, 187500.00, 187500.00, 187500.00, 0.000, 0.000, 0.000, 03:02:52.782
144, 34540.80, 9128.32, 187500.00, 187500.00, 187500.00, 187500.00, 187500.00, 187500.00, 0.000, 0.000, 0.000, 03:02:52.782
145, 34533.76, 9109.54, 187500.00, 187500.00, 187500.00, 187500.00, 187500.00, 187500.00, 0.196, 0.506, -0.874, 03:02:52.782
146, 34509.93, 9069.00, 187500.00, 187500.00, 187500.00, 187500.00, 187500.00, 187500.00, 0.000, 0.000, 0.000, 03:02:52.782
147, 34519.32, 9055.34, 187500.00, 187500.00, 187500.00, 187500.00, 187500.00, 187500.00, 0.000, 0.000, 0.000, 03:02:52.782
148, 34538.83, 9111.38, 187500.00, 187500.00, 187500.00, 187500.00, 187500.00, 187500.00, 0.000, 0.000, 0.000, 03:02:52.783
149, 34529.15, 9108.69, 187500.00, 187500.00, 187500.00, 187500.00, 187500.00, 187500.00, 0.000, 0.000, 0.000, 03:02:52.783
150, 34503.94, 9081.65, 187500.00, 187500.00, 187500.00, 187500.00, 187500.00, 187500.00, 0.000, 0.000, 0.000, 03:02:52.783
151, 34519.47, 9105.61, 187500.00, 187500.00, 187500.00, 187500.00, 187500.00, 187500.00, 0.000, 0.000, 0.000, 03:02:52.783
152, 34544.93, 9120.38, 187500.00, 187500.00, 187500.00, 187500.00, 187500.00, 187500.00, 0.000, 0.000, 0.000, 03:02:52.783
153, 34533.18, 9099.82, 187500.00, 187500.00, 187500.00, 187500.00, 187500.00, 187500.00, 0.000, 0.000, 0.000, 03:02:52.783
154, 34508.05, 9073.42, 187500.00, 187500.00, 187500.00, 187500.00, 187500.00, 187500.00, 0.000, 0.000, 0.000, 03:02:52.783
155, 34509.91, 9075.46, 187500.00, 187500.00, 187500.00, 187500.00, 187500.00, 187500.00, 0.192, 0.508, -0.872, 03:02:52.784
156, 34534.90, 9107.80, 187500.00, 187500.00, 187500.00, 187500.00, 187500.00, 187500.00, 0.000, 0.000, 0.000, 03:02:52.784
157, 34532.24, 9108.60, 187500.00, 187500.00, 187500.00, 187500.00, 187500.00, 187500.00, 0.000, 0.000, 0.000, 03:02:52.784
158, 34517.51, 9086.21, 187500.00, 187500.00, 187500.00, 187500.00, 187500.00, 187500.00, 0.000, 0.000, 0.000, 03:02:52.784
159, 34501.82, 9068.97, 187500.00, 187500.00, 187500.00, 187500.00, 187500.00, 187500.00, 0.000, 0.000, 0.000, 03:02:52.784
160, 34530.05, 9097.29, 187500.00, 187500.00, 187500.00, 187500.00, 187500.00, 187500.00, 0.000, 0.000, 0.000, 03:02:52.784
161, 34525.35, 9090.88, 187500.00, 187500.00, 187500.00, 187500.00, 187500.00, 187500.00, 0.000, 0.000, 0.000, 03:02:52.784
162, 34511.00, 9066.83, 187500.00, 187500.00, 187500.00, 187500.00, 187500.00, 187500.00, 0.000, 0.000, 0.000, 03:02:52.784
163, 34510.82, 9055.38, 187500.00, 187500.00, 187500.00, 187500.00, 187500.00, 187500.00, 0.000, 0.000, 0.000, 03:02:52.785
164, 34535.41, 9133.93, 187500.00, 187500.00, 187500.00, 187500.00, 187500.00, 187500.00, 0.000, 0.000, 0.000, 03:02:52.785
165, 34537.98, 9137.33, 187500.00, 187500.00, 187500.00, 187500.00, 187500.00, 187500.00, 0.196, 0.508, -0.876, 03:02:52.785
166, 34514.51, 9097.83, 187500.00, 187500.00, 187500.00, 187500.00, 187500.00, 187500.00, 0.000, 0.000, 0.000, 03:02:52.785
167, 34502.91, 9090.43, 187500.00, 187500.00, 187500.00, 187500.00, 187500.00, 187500.00, 0.000, 0.000, 0.000, 03:02:52.785
168, 34534.32, 9121.63, 187500.00, 187500.00, 187500.00, 187500.00, 187500.00, 187500.00, 0.000, 0.000, 0.000, 03:02:52.785
169, 34542.77, 9117.25, 187500.00, 187500.00, 187500.00, 187500.00, 187500.00, 187500.00, 0.000, 0.000, 0.000, 03:02:52.785
170, 34522.80, 9095.93, 187500.00, 187500.00, 187500.00, 187500.00, 187500.00, 187500.00, 0.000, 0.000, 0.000, 03:02:52.785
171, 34497.43, 9067.39, 187500.00, 187500.00, 187500.00, 187500.00, 187500.00, 187500.00, 0.000, 0.000, 0.000, 03:02:52.785
172, 34520.99, 9083.82, 187500.00, 187500.00, 187500.00, 187500.00, 187500.00, 187500.00, 0.000, 0.000, 0.000, 03:02:52.786
173, 34545.98, 9101.14, 187500.00, 187500.00, 187500.00, 187500.00, 187500.00, 187500.00, 0.000, 0.000, 0.000, 03:02:52.786
174, 34529.27, 9079.52, 187500.00, 187500.00, 187500.00, 187500.00, 187500.00, 187500.00, 0.000, 0.000, 0.000, 03:02:52.786
175, 34503.00, 9082.50, 187500.00, 187500.00, 187500.00, 187500.00, 187500.00, 187500.00, 0.198, 0.506, -0.880, 03:02:52.786
176, 34513.51, 9082.32, 187500.00, 187500.00, 187500.00, 187500.00, 187500.00, 187500.00, 0.000, 0.000, 0.000, 03:02:52.786
177, 34528.01, 9079.19, 187500.00, 187500.00, 187500.00, 187500.00, 187500.00, 187500.00, 0.000, 0.000, 0.000, 03:02:52.786
178, 34519.83, 9106.19, 187500.00, 187500.00, 187500.00, 187500.00, 187500.00, 187500.00, 0.000, 0.000, 0.000, 03:02:52.786
179, 34500.12, 9096.51, 187500.00, 187500.00, 187500.00, 187500.00, 187500.00, 187500.00, 0.000, 0.000, 0.000, 03:02:52.786
180, 34499.58, 9079.30, 187500.00, 187500.00, 187500.00, 187500.00, 187500.00, 187500.00, 0.000, 0.000, 0.000, 03:02:52.786
181, 34527.88, 9078.99, 187500.00, 187500.00, 187500.00, 187500.00, 187500.00, 187500.00, 0.000, 0.000, 0.000, 03:02:52.787
182, 34523.34, 9104.94, 187500.00, 187500.00, 187500.00, 187500.00, 187500.00, 187500.00, 0.000, 0.000, 0.000, 03:02:52.787
183, 34502.22, 9071.28, 187500.00, 187500.00, 187500.00, 187500.00, 187500.00, 187500.00, 0.000, 0.000, 0.000, 03:02:52.787
184, 34491.54, 9058.89, 187500.00, 187500.00, 187500.00, 187500.00, 187500.00, 187500.00, 0.000, 0.000, 0.000, 03:02:52.787
185, 34528.26, 9111.15, 187500.00, 187500.00, 187500.00, 187500.00, 187500.00, 187500.00, 0.194, 0.502, -0.878, 03:02:52.787
186, 34524.08, 9109.14, 187500.00, 187500.00, 187500.00, 187500.00, 187500.00, 187500.00, 0.000, 0.000, 0.000, 03:02:52.787
187, 34504.14, 9087.75, 187500.00, 187500.00, 187500.00, 187500.00, 187500.00, 187500.00, 0.000, 0.000, 0.000, 03:02:52.787
188, 34494.75, 9076.69, 187500.00, 187500.00, 187500.00, 187500.00, 187500.00, 187500.00, 0.000, 0.000, 0.000, 03:02:52.788
189, 34520.43, 9072.59, 187500.00, 187500.00, 187500.00, 187500.00, 187500.00, 187500.00, 0.000, 0.000, 0.000, 03:02:52.788
190, 34521.53, 9108.42, 187500.00, 187500.00, 187500.00, 187500.00, 187500.00, 187500.00, 0.000, 0.000, 0.000, 03:02:52.788
191, 34503.27, 9097.23, 187500.00, 187500.00, 187500.00, 187500.00, 187500.00, 187500.00, 0.000, 0.000, 0.000, 03:02:52.788
192, 34480.40, 9063.68, 187500.00, 187500.00, 187500.00, 187500.00, 187500.00, 187500.00, 0.000, 0.000, 0.000, 03:02:52.788
193, 34506.58, 9085.07, 187500.00, 187500.00, 187500.00, 187500.00, 187500.00, 187500.00, 0.000, 0.000, 0.000, 03:02:52.788
194, 34517.82, 9104.04, 187500.00, 187500.00, 187500.00, 187500.00, 187500.00, 187500.00, 0.000, 0.000, 0.000, 03:02:53.256
195, 34506.04, 9086.32, 187500.00, 187500.00, 187500.00, 187500.00, 187500.00, 187500.00, 0.194, 0.506, -0.874, 03:02:53.256
196, 34477.65, 9068.50, 187500.00, 187500.00, 187500.00, 187500.00, 187500.00, 187500.00, 0.000, 0.000, 0.000, 03:02:53.256
197, 34494.84, 9072.04, 187500.00, 187500.00, 187500.00, 187500.00, 187500.00, 187500.00, 0.000, 0.000, 0.000, 03:02:53.256
198, 34514.36, 9103.22, 187500.00, 187500.00, 187500.00, 187500.00, 187500.00, 187500.00, 0.000, 0.000, 0.000, 03:02:53.256
199, 34504.36, 9086.99, 187500.00, 187500.00, 187500.00, 187500.00, 187500.00, 187500.00, 0.000, 0.000, 0.000, 03:02:53.256
200, 34479.82, 9054.22, 187500.00, 187500.00, 187500.00, 187500.00, 187500.00, 187500.00, 0.000, 0.000, 0.000, 03:02:53.256
