%OpenBCI Raw EEG Data
%
%Sample Rate = 250.0 Hz
%First Column = SampleIndex
%Last Column = Timestamp 
%Other Columns = EEG data in microvolts followed by Accel Data (in G) interleaved with Aux Data
0, 0.00, 0.00, 0.00, 0.00, 0.00, 0.00, 0.00, 0.00, 0.206, 0.994, -0.086, 02:42:15.666
1, 30059.99, 8344.49, -187500.02, -187500.02, -187500.02, -187500.02, -187500.02, -187500.02, 0.000, 0.000, 0.000, 02:42:15.681
2, 30060.59, 8346.54, -187500.02, -187500.02, -187500.02, -187500.02, -187500.02, -187500.02, 0.000, 0.000, 0.000, 02:42:16.160
3, 30069.96, 8397.28, -187500.02, -187500.02, -187500.02, -187500.02, -187500.02, -187500.02, 0.000, 0.000, 0.000, 02:42:16.160
4, 30071.61, 8397.75, -187500.02, -187500.02, -187500.02, -187500.02, -187500.02, -187500.02, 0.000, 0.000, 0.000, 02:42:16.160
5, 30061.29, 8388.34, -187500.02, -187500.02, -187500.02, -187500.02, -187500.02, -187500.02, 0.000, 0.000, 0.000, 02:42:16.160
6, 30039.47, 8362.23, -187500.02, -187500.02, -187500.02, -187500.02, -187500.02, -187500.02, 0.000, 0.000, 0.000, 02:42:16.160
7, 30049.13, 8360.18, -187500.02, -187500.02, -187500.02, -187500.02, -187500.02, -187500.02, 0.000, 0.000, 0.000, 02:42:16.161
8, 30069.22, 8368.47, -187500.02, -187500.02, -187500.02, -187500.02, -187500.02, -187500.02, 0.208, 0.992, -0.084, 02:42:16.161
9, 30055.18, 8360.71, -187500.02, -187500.02, -187500.02, -187500.02, -187500.02, -187500.02, 0.000, 0.000, 0.000, 02:42:16.161
10, 30044.01, 8356.56, -187500.02, -187500.02, -187500.02, -187500.02, -187500.02, -187500.02, 0.000, 0.000, 0.000, 02:42:16.161
11, 30051.96, 8371.15, -187500.02, -187500.02, -187500.02, -187500.02, -187500.02, -187500.02, 0.000, 0.000, 0.000, 02:42:16.161
12, 30073.80, 8376.29, -187500.02, -187500.02, -187500.02, -187500.02, -187500.02, -187500.02, 0.000, 0.000, 0.000, 02:42:16.161
13, 30068.15, 8375.71, -187500.02, -187500.02, -187500.02, -187500.02, -187500.02, -187500.02, 0.000, 0.000, 0.000, 02:42:16.161
14, 30038.17, 8347.44, -187500.02, -187500.02, -187500.02, -187500.02, -187500.02, -187500.02, 0.000, 0.000, 0.000, 02:42:16.161
15, 30049.15, 8338.36, -187500.02, -187500.02, -187500.02, -187500.02, -187500.02, -187500.02, 0.000, 0.000, 0.000, 02:42:16.161
16, 30060.66, 8347.57, -187500.02, -187500.02, -187500.02, -187500.02, -187500.02, -187500.02, 0.000, 0.000, 0.000, 02:42:16.162
17, 30059.99, 8340.71, -187500.02, -187500.02, -187500.02, -187500.02, -187500.02, -187500.02, 0.208, 0.990, -0.082, 02:42:16.162
18, 30041.66, 8343.55, -187500.02, -187500.02, -187500.02, -187500.02, -187500.02, -187500.02, 0.000, 0.000, 0.000, 02:42:16.162
19, 30047.74, 8347.10, -187500.02, -187500.02, -187500.02, -187500.02, -187500.02, -187500.02, 0.000, 0.000, 0.000, 02:42:16.162
20, 30064.91, 8372.76, -187500.02, -187500.02, -187500.02, -187500.02, -187500.02, -187500.02, 0.000, 0.000, 0.000, 02:42:16.162
21, 30056.12, 8368.87, -187500.02, -187500.02, -187500.02, -187500.02, -187500.02, -187500.02, 0.000, 0.000, 0.000, 02:42:16.162
22, 30044.74, 8345.94, -187500.02, -187500.02, -187500.02, -187500.02, -187500.02, -187500.02, 0.000, 0.000, 0.000, 02:42:16.162
23, 30041.17, 8324.33, -187500.02, -187500.02, -187500.02, -187500.02, -187500.02, -187500.02, 0.000, 0.000, 0.000, 02:42:16.162
24, 30058.92, 8340.29, -187500.02, -187500.02, -187500.02, -187500.02, -187500.02, -187500.02, 0.000, 0.000, 0.000, 02:42:16.162
25, 30049.75, 8354.77, -187500.02, -187500.02, -187500.02, -187500.02, -187500.02, -187500.02, 0.000, 0.000, 0.000, 02:42:16.163
26, 30035.71, 8335.84, -187500.02, -187500.02, -187500.02, -187500.02, -187500.02, -187500.02, 0.000, 0.000, 0.000, 02:42:16.163
27, 30030.15, 8285.99, -187500.02, -187500.02, -187500.02, -187500.02, -187500.02, -187500.02, 0.202, 0.980, -0.080, 02:42:16.163
28, 30059.47, 8306.67, -187500.02, -187500.02, -187500.02, -187500.02, -187500.02, -187500.02, 0.000, 0.000, 0.000, 02:42:16.163
29, 30063.79, 8338.90, -187500.02, -187500.02, -187500.02, -187500.02, -187500.02, -187500.02, 0.000, 0.000, 0.000, 02:42:16.163
30, 30049.66, 8347.44, -187500.02, -187500.02, -187500.02, -187500.02, -187500.02, -187500.02, 0.000, 0.000, 0.000, 02:42:16.163
31, 30038.80, 8296.21, -187500.02, -187500.02, -187500.02, -187500.02, -187500.02, -187500.02, 0.000, 0.000, 0.000, 02:42:16.163
32, 30061.96, 8360.67, -187500.02, -187500.02, -187500.02, -187500.02, -187500.02, -187500.02, 0.000, 0.000, 0.000, 02:42:16.163
33, 30067.25, 8391.85, -187500.02, -187500.02, -187500.02, -187500.02, -187500.02, -187500.02, 0.000, 0.000, 0.000, 02:42:16.163
34, 30059.34, 8337.92, -187500.02, -187500.02, -187500.02, -187500.02, -187500.02, -187500.02, 0.000, 0.000, 0.000, 02:42:16.164
35, 30040.36, 8302.09, -187500.02, -187500.02, -187500.02, -187500.02, -187500.02, -187500.02, 0.000, 0.000, 0.000, 02:42:16.164
36, 30056.86, 8324.75, -187500.02, -187500.02, -187500.02, -187500.02, -187500.02, -187500.02, 0.000, 0.000, 0.000, 02:42:16.164
37, 30073.51, 8321.80, -187500.02, -187500.02, -187500.02, -187500.02, -187500.02, -187500.02, 0.196, 0.976, -0.080, 02:42:16.164
38, 30062.80, 8357.56, -187500.02, -187500.02, -187500.02, -187500.02, -187500.02, -187500.02, 0.000, 0.000, 0.000, 02:42:16.164
39, 30031.15, 8331.90, -187500.02, -187500.02, -187500.02, -187500.02, -187500.02, -187500.02, 0.000, 0.000, 0.000, 02:42:16.164
40, 30049.88, 8318.04, -187500.02, -187500.02, -187500.02, -187500.02, -187500.02, -187500.02, 0.000, 0.000, 0.000, 02:42:16.164
41, 30066.25, 8330.14, -187500.02, -187500.02, -187500.02, -187500.02, -187500.02, -187500.02, 0.000, 0.000, 0.000, 02:42:16.164
42, 30063.61, 8337.40, -187500.02, -187500.02, -187500.02, -187500.02, -187500.02, -187500.02, 0.000, 0.000, 0.000, 02:42:16.164
43, 30047.38, 8312.64, -187500.02, -187500.02, -187500.02, -187500.02, -187500.02, -187500.02, 0.000, 0.000, 0.000, 02:42:16.164
44, 30049.37, 8337.22, -187500.02, -187500.02, -187500.02, -187500.02, -187500.02, -187500.02, 0.000, 0.000, 0.000, 02:42:16.165
45, 30055.32, 8350.14, -187500.02, -187500.02, -187500.02, -187500.02, -187500.02, -187500.02, 0.000, 0.000, 0.000, 02:42:16.165
46, 30052.79, 8329.62, -187500.02, -187500.02, -187500.02, -187500.02, -187500.02, -187500.02, 0.000, 0.000, 0.000, 02:42:16.165
47, 30031.65, 8318.29, -187500.02, -187500.02, -187500.02, -187500.02, -187500.02, -187500.02, 0.184, 0.986, -0.084, 02:42:16.165
48, 30020.49, 8293.82, -187500.02, -187500.02, -187500.02, -187500.02, -187500.02, -187500.02, 0.000, 0.000, 0.000, 02:42:16.165
49, 30041.95, 8296.45, -187500.02, -187500.02, -187500.02, -187500.02, -187500.02, -187500.02, 0.000, 0.000, 0.000, 02:42:16.165
50, 30049.60, 8281.39, -187500.02, -187500.02, -187500.02, -187500.02, -187500.02, -187500.02, 0.000, 0.000, 0.000, 02:42:16.165
51, 30038.96, 8276.25, -187500.02, -187500.02, -187500.02, -187500.02, -187500.02, -187500.02, 0.000, 0.000, 0.000, 02:42:16.165
52, 30025.66, 8290.80, -187500.02, -187500.02, -187500.02, -187500.02, -187500.02, -187500.02, 0.000, 0.000, 0.000, 02:42:16.165
53, 30041.21, 8301.79, -187500.02, -187500.02, -187500.02, -187500.02, -187500.02, -187500.02, 0.000, 0.000, 0.000, 02:42:16.166
54, 30035.13, 8296.05, -187500.02, -187500.02, -187500.02, -187500.02, -187500.02, -187500.02, 0.000, 0.000, 0.000, 02:42:16.166
55, 30027.18, 8265.56, -187500.02, -187500.02, -187500.02, -187500.02, -187500.02, -187500.02, 0.000, 0.000, 0.000, 02:42:16.166
56, 30018.95, 8280.74, -187500.02, -187500.02, -187500.02, -187500.02, -187500.02, -187500.02, 0.000, 0.000, 0.000, 02:42:16.166
57, 30059.14, 8321.24, -187500.02, -187500.02, -187500.02, -187500.02, -187500.02, -187500.02, 0.182, 0.996, -0.078, 02:42:16.166
58, 30071.34, 8319.97, -187500.02, -187500.02, -187500.02, -187500.02, -187500.02, -187500.02, 0.000, 0.000, 0.000, 02:42:16.166
59, 30054.78, 8307.27, -187500.02, -187500.02, -187500.02, -187500.02, -187500.02, -187500.02, 0.000, 0.000, 0.000, 02:42:16.166
60, 30035.33, 8275.69, -187500.02, -187500.02, -187500.02, -187500.02, -187500.02, -187500.02, 0.000, 0.000, 0.000, 02:42:16.166
61, 30054.24, 8289.55, -187500.02, -187500.02, -187500.02, -187500.02, -187500.02, -187500.02, 0.000, 0.000, 0.000, 02:42:16.166
62, 30062.85, 8292.85, -187500.02, -187500.02, -187500.02, -187500.02, -187500.02, -187500.02, 0.000, 0.000, 0.000, 02:42:16.167
63, 30054.45, 8288.27, -187500.02, -187500.02, -187500.02, -187500.02, -187500.02, -187500.02, 0.000, 0.000, 0.000, 02:42:16.167
64, 30035.00, 8286.71, -187500.02, -187500.02, -187500.02, -187500.02, -187500.02, -187500.02, 0.000, 0.000, 0.000, 02:42:16.174
65, 30041.37, 8295.13, -187500.02, -187500.02, -187500.02, -187500.02, -187500.02, -187500.02, 0.000, 0.000, 0.000, 02:42:16.174
66, 30060.28, 8310.67, -187500.02, -187500.02, -187500.02, -187500.02, -187500.02, -187500.02, 0.000, 0.000, 0.000, 02:42:16.174
67, 30055.05, 8308.63, -187500.02, -187500.02, -187500.02, -187500.02, -187500.02, -187500.02, 0.188, 1.002, -0.084, 02:42:16.174
68, 30043.72, 8287.49, -187500.02, -187500.02, -187500.02, -187500.02, -187500.02, -187500.02, 0.000, 0.000, 0.000, 02:42:16.174
69, 30043.63, 8267.40, -187500.02, -187500.02, -187500.02, -187500.02, -187500.02, -187500.02, 0.000, 0.000, 0.000, 02:42:16.174
70, 30061.89, 8273.99, -187500.02, -187500.02, -187500.02, -187500.02, -187500.02, -187500.02, 0.000, 0.000, 0.000, 02:42:16.175
71, 30063.77, 8292.14, -187500.02, -187500.02, -187500.02, -187500.02, -187500.02, -187500.02, 0.000, 0.000, 0.000, 02:42:16.175
72, 30059.59, 8299.45, -187500.02, -187500.02, -187500.02, -187500.02, -187500.02, -187500.02, 0.000, 0.000, 0.000, 02:42:16.175
73, 30071.95, 8264.85, -187500.02, -187500.02, -187500.02, -187500.02, -187500.02, -187500.02, 0.000, 0.000, 0.000, 02:42:16.175
74, 30093.49, 8315.25, -187500.02, -187500.02, -187500.02, -187500.02, -187500.02, -187500.02, 0.000, 0.000, 0.000, 02:42:16.175
75, 30082.83, 8307.23, -187500.02, -187500.02, -187500.02, -187500.02, -187500.02, -187500.02, 0.000, 0.000, 0.000, 02:42:16.175
76, 30075.19, 8289.77, -187500.02, -187500.02, -187500.02, -187500.02, -187500.02, -187500.02, 0.196, 1.000, -0.086, 02:42:16.175
77, 30042.89, 8291.56, -187500.02, -187500.02, -187500.02, -187500.02, -187500.02, -187500.02, 0.000, 0.000, 0.000, 02:42:16.176
78, 30067.92, 8310.67, -187500.02, -187500.02, -187500.02, -187500.02, -187500.02, -187500.02, 0.000, 0.000, 0.000, 02:42:16.176
79, 30078.50, 8294.42, -187500.02, -187500.02, -187500.02, -187500.02, -187500.02, -187500.02, 0.000, 0.000, 0.000, 02:42:16.176
80, 30062.36, 8282.80, -187500.02, -187500.02, -187500.02, -187500.02, -187500.02, -187500.02, 0.000, 0.000, 0.000, 02:42:16.176
81, 30047.87, 8270.44, -187500.02, -187500.02, -187500.02, -187500.02, -187500.02, -187500.02, 0.000, 0.000, 0.000, 02:42:16.176
82, 30067.77, 8289.77, -187500.02, -187500.02, -187500.02, -187500.02, -187500.02, -187500.02, 0.000, 0.000, 0.000, 02:42:16.176
83, 30060.10, 8304.95, -187500.02, -187500.02, -187500.02, -187500.02, -187500.02, -187500.02, 0.000, 0.000, 0.000, 02:42:16.176
84, 30058.18, 8272.51, -187500.02, -187500.02, -187500.02, -187500.02, -187500.02, -187500.02, 0.000, 0.000, 0.000, 02:42:16.176
85, 30049.84, 8273.41, -187500.02, -187500.02, -187500.02, -187500.02, -187500.02, -187500.02, 0.000, 0.000, 0.000, 02:42:16.176
86, 30062.18, 8285.95, -187500.02, -187500.02, -187500.02, -187500.02, -187500.02, -187500.02, 0.202, 0.994, -0.088, 02:42:16.177
87, 30081.27, 8296.88, -187500.02, -187500.02, -187500.02, -187500.02, -187500.02, -187500.02, 0.000, 0.000, 0.000, 02:42:16.177
88, 30067.77, 8284.96, -187500.02, -187500.02, -187500.02, -187500.02, -187500.02, -187500.02, 0.000, 0.000, 0.000, 02:42:16.177
89, 30045.01, 8258.54, -187500.02, -187500.02, -187500.02, -187500.02, -187500.02, -187500.02, 0.000, 0.000, 0.000, 02:42:16.177
90, 30036.97, 8257.94, -187500.02, -187500.02, -187500.02, -187500.02, -187500.02, -187500.02, 0.000, 0.000, 0.000, 02:42:16.177
91, 30052.88, 8253.78, -187500.02, -187500.02, -187500.02, -187500.02, -187500.02, -187500.02, 0.000, 0.000, 0.000, 02:42:16.177
92, 30066.34, 8277.32, -187500.02, -187500.02, -187500.02, -187500.02, -187500.02, -187500.02, 0.000, 0.000, 0.000, 02:42:16.177
93, 30039.96, 8282.42, -187500.02, -187500.02, -187500.02, -187500.02, -187500.02, -187500.02, 0.000, 0.000, 0.000, 02:42:16.177
94, 30039.13, 8273.30, -187500.02, -187500.02, -187500.02, -187500.02, -187500.02, -187500.02, 0.000, 0.000, 0.000, 02:42:16.177
95, 30052.34, 8282.39, -187500.02, -187500.02, -187500.02, -187500.02, -187500.02, -187500.02, 0.000, 0.000, 0.000, 02:42:16.177
96, 30051.47, 8271.40, -187500.02, -187500.02, -187500.02, -187500.02, -187500.02, -187500.02, 0.208, 0.998, -0.088, 02:42:16.178
97, 30053.66, 8243.12, -187500.02, -187500.02, -187500.02, -187500.02, -187500.02, -187500.02, 0.000, 0.000, 0.000, 02:42:16.178
98, 30054.29, 8254.68, -187500.02, -187500.02, -187500.02, -187500.02, -187500.02, -187500.02, 0.000, 0.000, 0.000, 02:42:16.178
99, 30072.59, 8304.68, -187500.02, -187500.02, -187500.02, -187500.02, -187500.02, -187500.02, 0.000, 0.000, 0.000, 02:42:16.178
100, 30063.86, 8306.04, -187500.02, -187500.02, -187500.02, -187500.02, -187500.02, -187500.02, 0.000, 0.000, 0.000, 02:42:16.178
101, 30054.20, 8245.67, -187500.02, -187500.02, -187500.02, -187500.02, -187500.02, -187500.02, 0.000, 0.000, 0.000, 02:42:16.178
102, 30043.61, 8249.02, -187500.02, -187500.02, -187500.02, -187500.02, -187500.02, -187500.02, 0.000, 0.000, 0.000, 02:42:16.178
103, 30068.62, 8288.67, -187500.02, -187500.02, -187500.02, -187500.02, -187500.02, -187500.02, 0.000, 0.000, 0.000, 02:42:16.178
104, 30067.97, 8271.64, -187500.02, -187500.02, -187500.02, -187500.02, -187500.02, -187500.02, 0.000, 0.000, 0.000, 02:42:16.178
105, 30069.55, 8279.44, -187500.02, -187500.02, -187500.02, -187500.02, -187500.02, -187500.02, 0.000, 0.000, 0.000, 02:42:16.179
106, 30054.06, 8284.12, -187500.02, -187500.02, -187500.02, -187500.02, -187500.02, -187500.02, 0.206, 1.000, -0.092, 02:42:16.179
107, 30056.52, 8278.50, -187500.02, -187500.02, -187500.02, -187500.02, -187500.02, -187500.02, 0.000, 0.000, 0.000, 02:42:16.179
108, 30069.04, 8281.28, -187500.02, -187500.02, -187500.02, -187500.02, -187500.02, -187500.02, 0.000, 0.000, 0.000, 02:42:16.179
109, 30067.77, 8273.52, -187500.02, -187500.02, -187500.02, -187500.02, -187500.02, -187500.02, 0.000, 0.000, 0.000, 02:42:16.179
110, 30040.77, 8246.32, -187500.02, -187500.02, -187500.02, -187500.02, -187500.02, -187500.02, 0.000, 0.000, 0.000, 02:42:16.179
111, 30057.84, 8240.86, -187500.02, -187500.02, -187500.02, -187500.02, -187500.02, -187500.02, 0.000, 0.000, 0.000, 02:42:16.179
112, 30071.32, 8257.94, -187500.02, -187500.02, -187500.02, -187500.02, -187500.02, -187500.02, 0.000, 0.000, 0.000, 02:42:16.179
113, 30077.65, 8278.66, -187500.02, -187500.02, -187500.02, -187500.02, -187500.02, -187500.02, 0.000, 0.000, 0.000, 02:42:16.179
114, 30061.31, 8286.48, -187500.02, -187500.02, -187500.02, -187500.02, -187500.02, -187500.02, 0.000, 0.000, 0.000, 02:42:16.179
115, 30055.83, 8265.03, -187500.02, -187500.02, -187500.02, -187500.02, -187500.02, -187500.02, 0.000, 0.000, 0.000, 02:42:16.180
116, 30067.52, 8272.04, -187500.02, -187500.02, -187500.02, -187500.02, -187500.02, -187500.02, 0.206, 1.000, -0.094, 02:42:16.180
117, 30060.68, 8251.06, -187500.02, -187500.02, -187500.02, -187500.02, -187500.02, -187500.02, 0.000, 0.000, 0.000, 02:42:16.180
118, 30052.43, 8246.07, -187500.02, -187500.02, -187500.02, -187500.02, -187500.02, -187500.02, 0.000, 0.000, 0.000, 02:42:16.180
119, 30054.45, 8261.81, -187500.02, -187500.02, -187500.02, -187500.02, -187500.02, -187500.02, 0.000, 0.000, 0.000, 02:42:16.180
120, 30069.62, 8261.72, -187500.02, -187500.02, -187500.02, -187500.02, -187500.02, -187500.02, 0.000, 0.000, 0.000, 02:42:16.180
121, 30066.09, 8248.75, -187500.02, -187500.02, -187500.02, -187500.02, -187500.02, -187500.02, 0.000, 0.000, 0.000, 02:42:16.180
122, 30049.01, 8238.32, -187500.02, -187500.02, -187500.02, -187500.02, -187500.02, -187500.02, 0.000, 0.000, 0.000, 02:42:16.640
123, 30058.20, 8224.68, -187500.02, -187500.02, -187500.02, -187500.02, -187500.02, -187500.02, 0.000, 0.000, 0.000, 02:42:16.640
124, 30075.70, 8247.15, -187500.02, -187500.02, -187500.02, -187500.02, -187500.02, -187500.02, 0.000, 0.000, 0.000, 02:42:16.640
125, 30062.45, 8251.68, -187500.02, -187500.02, -187500.02, -187500.02, -187500.02, -187500.02, 0.000, 0.000, 0.000, 02:42:16.641
126, 30054.74, 8284.07, -187500.02, -187500.02, -187500.02, -187500.02, -187500.02, -187500.02, 0.200, 1.000, -0.094, 02:42:16.641
127, 30042.33, 8259.59, -187500.02, -187500.02, -187500.02, -187500.02, -187500.02, -187500.02, 0.000, 0.000, 0.000, 02:42:16.641
128, 30054.11, 8257.92, -187500.02, -187500.02, -187500.02, -187500.02, -187500.02, -187500.02, 0.000, 0.000, 0.000, 02:42:16.641
129, 30072.95, 8232.57, -187500.02, -187500.02, -187500.02, -187500.02, -187500.02, -187500.02, 0.000, 0.000, 0.000, 02:42:16.641
130, 30066.40, 8242.88, -187500.02, -187500.02, -187500.02, -187500.02, -187500.02, -187500.02, 0.000, 0.000, 0.000, 02:42:16.641
131, 30054.85, 8220.26, -187500.02, -187500.02, -187500.02, -187500.02, -187500.02, -187500.02, 0.000, 0.000, 0.000, 02:42:16.641
132, 30070.45, 8233.71, -187500.02, -187500.02, -187500.02, -187500.02, -187500.02, -187500.02, 0.000, 0.000, 0.000, 02:42:16.642
133, 30080.71, 8251.50, -187500.02, -187500.02, -187500.02, -187500.02, -187500.02, -187500.02, 0.000, 0.000, 0.000, 02:42:16.642
134, 30065.60, 8236.30, -187500.02, -187500.02, -187500.02, -187500.02, -187500.02, -187500.02, 0.000, 0.000, 0.000, 02:42:16.642
135, 30050.04, 8235.54, -187500.02, -187500.02, -187500.02, -187500.02, -187500.02, -187500.02, 0.194, 1.002, -0.094, 02:42:16.642
136, 30071.48, 8236.82, -187500.02, -187500.02, -187500.02, -187500.02, -187500.02, -187500.02, 0.000, 0.000, 0.000, 02:42:16.642
137, 30085.76, 8262.01, -187500.02, -187500.02, -187500.02, -187500.02, -187500.02, -187500.02, 0.000, 0.000, 0.000, 02:42:16.642
138, 30075.46, 8273.41, -187500.02, -187500.02, -187500.02, -187500.02, -187500.02, -187500.02, 0.000, 0.000, 0.000, 02:42:16.642
139, 30050.71, 8251.64, -187500.02, -187500.02, -187500.02, -187500.02, -187500.02, -187500.02, 0.000, 0.000, 0.000, 02:42:16.643
140, 30051.03, 8235.19, -187500.02, -187500.02, -187500.02, -187500.02, -187500.02, -187500.02, 0.000, 0.000, 0.000, 02:42:16.643
141, 30076.42, 8235.37, -187500.02, -187500.02, -187500.02, -187500.02, -187500.02, -187500.02, 0.000, 0.000, 0.000, 02:42:16.643
142, 30083.23, 8248.93, -187500.02, -187500.02, -187500.02, -187500.02, -187500.02, -187500.02, 0.000, 0.000, 0.000, 02:42:16.643
143, 30053.30, 8248.75, -187500.02, -187500.02, -187500.02, -187500.02, -187500.02, -187500.02, 0.000, 0.000, 0.000, 02:42:16.643
144, 30050.42, 8237.47, -187500.02, -187500.02, -187500.02, -187500.02, -187500.02, -187500.02, 0.000, 0.000, 0.000, 02:42:16.643
145, 30077.65, 8226.72, -187500.02, -187500.02, -187500.02, -187500.02, -187500.02, -187500.02, 0.190, 0.998, -0.090, 02:42:16.644
146, 30067.92, 8222.11, -187500.02, -187500.02, -187500.02, -187500.02, -187500.02, -187500.02, 0.000, 0.000, 0.000, 02:42:16.644
147, 30051.16, 8188.25, -187500.02, -187500.02, -187500.02, -187500.02, -187500.02, -187500.02, 0.000, 0.000, 0.000, 02:42:16.644
148, 30046.64, 8207.85, -187500.02, -187500.02, -187500.02, -187500.02, -187500.02, -187500.02, 0.000, 0.000, 0.000, 02:42:16.644
149, 30066.11, 8235.83, -187500.02, -187500.02, -187500.02, -187500.02, -187500.02, -187500.02, 0.000, 0.000, 0.000, 02:42:16.644
150, 30073.33, 8267.44, -187500.02, -187500.02, -187500.02, -187500.02, -187500.02, -187500.02, 0.000, 0.000, 0.000, 02:42:16.644
151, 30058.24, 8259.95, -187500.02, -187500.02, -187500.02, -187500.02, -187500.02, -187500.02, 0.000, 0.000, 0.000, 02:42:16.644
152, 30055.63, 8230.83, -187500.02, -187500.02, -187500.02, -187500.02, -187500.02, -187500.02, 0.000, 0.000, 0.000, 02:42:16.644
153, 30079.46, 8231.48, -187500.02, -187500.02, -187500.02, -187500.02, -187500.02, -187500.02, 0.000, 0.000, 0.000, 02:42:16.645
154, 30088.64, 8234.36, -187500.02, -187500.02, -187500.02, -187500.02, -187500.02, -187500.02, 0.000, 0.000, 0.000, 02:42:16.645
155, 30053.84, 8224.66, -187500.02, -187500.02, -187500.02, -187500.02, -187500.02, -187500.02, 0.186, 0.996, -0.088, 02:42:16.645
156, 30048.37, 8167.37, -187500.02, -187500.02, -187500.02, -187500.02, -187500.02, -187500.02, 0.000, 0.000, 0.000, 02:42:16.645
157, 30058.69, 8213.73, -187500.02, -187500.02, -187500.02, -187500.02, -187500.02, -187500.02, 0.000, 0.000, 0.000, 02:42:16.645
158, 30072.46, 8224.50, -187500.02, -187500.02, -187500.02, -187500.02, -187500.02, -187500.02, 0.000, 0.000, 0.000, 02:42:16.645
159, 30063.16, 8216.14, -187500.02, -187500.02, -187500.02, -187500.02, -187500.02, -187500.02, 0.000, 0.000, 0.000, 02:42:16.645
160, 30043.02, 8208.32, -187500.02, -187500.02, -187500.02, -187500.02, -187500.02, -187500.02, 0.000, 0.000, 0.000, 02:42:16.645
161, 30051.96, 8196.70, -187500.02, -187500.02, -187500.02, -187500.02, -187500.02, -187500.02, 0.000, 0.000, 0.000, 02:42:16.646
162, 30053.13, 8215.36, -187500.02, -187500.02, -187500.02, -187500.02, -187500.02, -187500.02, 0.000, 0.000, 0.000, 02:42:16.646
163, 30061.20, 8237.20, -187500.02, -187500.02, -187500.02, -187500.02, -187500.02, -187500.02, 0.000, 0.000, 0.000, 02:42:16.646
164, 30066.34, 8211.85, -187500.02, -187500.02, -187500.02, -187500.02, -187500.02, -187500.02, 0.000, 0.000, 0.000, 02:42:16.646
165, 30081.20, 8204.39, -187500.02, -187500.02, -187500.02, -187500.02, -187500.02, -187500.02, 0.184, 1.004, -0.090, 02:42:16.647
166, 30097.54, 8251.95, -187500.02, -187500.02, -187500.02, -187500.02, -187500.02, -187500.02, 0.000, 0.000, 0.000, 02:42:16.647
167, 30074.27, 8255.28, -187500.02, -187500.02, -187500.02, -187500.02, -187500.02, -187500.02, 0.000, 0.000, 0.000, 02:42:16.647
168, 30054.67, 8212.77, -187500.02, -187500.02, -187500.02, -187500.02, -187500.02, -187500.02, 0.000, 0.000, 0.000, 02:42:16.647
169, 30052.25, 8207.25, -187500.02, -187500.02, -187500.02, -187500.02, -187500.02, -187500.02, 0.000, 0.000, 0.000, 02:42:16.647
170, 30077.69, 8251.35, -187500.02, -187500.02, -187500.02, -187500.02, -187500.02, -187500.02, 0.000, 0.000, 0.000, 02:42:16.647
171, 30073.64, 8248.84, -187500.02, -187500.02, -187500.02, -187500.02, -187500.02, -187500.02, 0.000, 0.000, 0.000, 02:42:16.647
172, 30060.32, 8225.17, -187500.02, -187500.02, -187500.02, -187500.02, -187500.02, -187500.02, 0.000, 0.000, 0.000, 02:42:16.647
173, 30051.16, 8210.94, -187500.02, -187500.02, -187500.02, -187500.02, -187500.02, -187500.02, 0.000, 0.000, 0.000, 02:42:16.648
174, 30076.66, 8231.12, -187500.02, -187500.02, -187500.02, -187500.02, -187500.02, -187500.02, 0.000, 0.000, 0.000, 02:42:16.648
175, 30078.21, 8234.29, -187500.02, -187500.02, -187500.02, -187500.02, -187500.02, -187500.02, 0.184, 1.000, -0.092, 02:42:16.648
176, 30070.61, 8209.57, -187500.02, -187500.02, -187500.02, -187500.02, -187500.02, -187500.02, 0.000, 0.000, 0.000, 02:42:16.648
177, 30057.75, 8180.74, -187500.02, -187500.02, -187500.02, -187500.02, -187500.02, -187500.02, 0.000, 0.000, 0.000, 02:42:16.648
178, 30076.91, 8241.60, -187500.02, -187500.02, -187500.02, -187500.02, -187500.02, -187500.02, 0.000, 0.000, 0.000, 02:42:16.648
179, 30091.44, 8246.88, -187500.02, -187500.02, -187500.02, -187500.02, -187500.02, -187500.02, 0.000, 0.000, 0.000, 02:42:16.648
180, 30076.71, 8234.38, -187500.02, -187500.02, -187500.02, -187500.02, -187500.02, -187500.02, 0.000, 0.000, 0.000, 02:42:16.649
181, 30060.35, 8229.24, -187500.02, -187500.02, -187500.02, -187500.02, -187500.02, -187500.02, 0.000, 0.000, 0.000, 02:42:16.649
182, 30069.96, 8225.13, -187500.02, -187500.02, -187500.02, -187500.02, -187500.02, -187500.02, 0.000, 0.000, 0.000, 02:42:16.649
183, 30094.70, 8210.09, -187500.02, -187500.02, -187500.02, -187500.02, -187500.02, -187500.02, 0.000, 0.000, 0.000, 02:42:16.650
184, 30096.47, 8236.59, -187500.02, -187500.02, -187500.02, -187500.02, -187500.02, -187500.02, 0.000, 0.000, 0.000, 02:42:16.650
185, 30081.56, 8261.23, -187500.02, -187500.02, -187500.02, -187500.02, -187500.02, -187500.02, 0.184, 0.994, -0.088, 02:42:16.650
186, 30083.44, 8256.38, -187500.02, -187500.02, -187500.02, -187500.02, -187500.02, -187500.02, 0.000, 0.000, 0.000, 02:42:16.650
187, 30112.85, 8267.69, -187500.02, -187500.02, -187500.02, -187500.02, -187500.02, -187500.02, 0.000, 0.000, 0.000, 02:42:16.650
188, 30110.08, 8275.82, -187500.02, -187500.02, -187500.02, -187500.02, -187500.02, -187500.02, 0.000, 0.000, 0.000, 02:42:16.650
189, 30082.63, 8241.07, -187500.02, -187500.02, -187500.02, -187500.02, -187500.02, -187500.02, 0.000, 0.000, 0.000, 02:42:16.650
190, 30085.47, 8228.97, -187500.02, -187500.02, -187500.02, -187500.02, -187500.02, -187500.02, 0.000, 0.000, 0.000, 02:42:16.650
191, 30105.03, 8261.88, -187500.02, -187500.02, -187500.02, -187500.02, -187500.02, -187500.02, 0.000, 0.000, 0.000, 02:42:16.651
192, 30110.19, 8288.29, -187500.02, -187500.02, -187500.02, -187500.02, -187500.02, -187500.02, 0.000, 0.000, 0.000, 02:42:16.651
193, 30093.36, 8291.69, -187500.02, -187500.02, -187500.02, -187500.02, -187500.02, -187500.02, 0.000, 0.000, 0.000, 02:42:16.651
194, 30081.74, 8239.21, -187500.02, -187500.02, -187500.02, -187500.02, -187500.02, -187500.02, 0.000, 0.000, 0.000, 02:42:16.651
195, 30114.26, 8235.01, -187500.02, -187500.02, -187500.02, -187500.02, -187500.02, -187500.02, 0.208, 0.980, -0.068, 02:42:16.651
196, 30113.03, 8263.69, -187500.02, -187500.02, -187500.02, -187500.02, -187500.02, -187500.02, 0.000, 0.000, 0.000, 02:42:16.651
197, 30114.21, 8254.59, -187500.02, -187500.02, -187500.02, -187500.02, -187500.02, -187500.02, 0.000, 0.000, 0.000, 02:42:16.651
198, 30097.32, 8250.43, -187500.02, -187500.02, -187500.02, -187500.02, -187500.02, -187500.02, 0.000, 0.000, 0.000, 02:42:16.651
199, 30114.88, 8266.52, -187500.02, -187500.02, -187500.02, -187500.02, -187500.02, -187500.02, 0.000, 0.000, 0.000, 02:42:16.652
200, 30107.96, 8267.31, -187500.02, -187500.02, -187500.02, -187500.02, -187500.02, -187500.02, 0.000, 0.000, 0.000, 02:42:16.652
201, 30094.28, 8275.35, -187500.02, -187500.02, -187500.02, -187500.02, -187500.02, -187500.02, 0.000, 0.000, 0.000, 02:42:16.652
202, 30082.09, 8226.98, -187500.02, -187500.02, -187500.02, -187500.02, -187500.02, -187500.02, 0.000, 0.000, 0.000, 02:42:16.652
203, 30088.69, 8252.53, -187500.02, -187500.02, -187500.02, -187500.02, -187500.02, -187500.02, 0.000, 0.000, 0.000, 02:42:16.652
204, 30085.63, 8263.98, -187500.02, -187500.02, -187500.02, -187500.02, -187500.02, -187500.02, 0.208, 0.990, -0.078, 02:42:16.652
205, 30078.94, 8240.78, -187500.02, -187500.02, -187500.02, -187500.02, -187500.02, -187500.02, 0.000, 0.000, 0.000, 02:42:16.652
206, 30065.82, 8230.00, -187500.02, -187500.02, -187500.02, -187500.02, -187500.02, -187500.02, 0.000, 0.000, 0.000, 02:42:16.652
207, 30088.40, 8236.24, -187500.02, -187500.02, -187500.02, -187500.02, -187500.02, -187500.02, 0.000, 0.000, 0.000, 02:42:16.652
208, 30101.12, 8262.37, -187500.02, -187500.02, -187500.02, -187500.02, -187500.02, -187500.02, 0.000, 0.000, 0.000, 02:42:16.652
209, 30100.62, 8287.69, -187500.02, -187500.02, -187500.02, -187500.02, -187500.02, -187500.02, 0.000, 0.000, 0.000, 02:42:16.653
210, 30082.16, 8291.45, -187500.02, -187500.02, -187500.02, -187500.02, -187500.02, -187500.02, 0.000, 0.000, 0.000, 02:42:16.653
211, 30091.73, 8271.02, -187500.02, -187500.02, -187500.02, -187500.02, -187500.02, -187500.02, 0.000, 0.000, 0.000, 02:42:16.653
212, 30104.42, 8284.29, -187500.02, -187500.02, -187500.02, -187500.02, -187500.02, -187500.02, 0.000, 0.000, 0.000, 02:42:16.653
213, 30087.23, 8274.59, -187500.02, -187500.02, -187500.02, -187500.02, -187500.02, -187500.02, 0.000, 0.000, 0.000, 02:42:16.653
214, 30070.72, 8255.42, -187500.02, -187500.02, -187500.02, -187500.02, -187500.02, -187500.02, 0.208, 0.990, -0.080, 02:42:16.653
215, 30067.48, 8259.28, -187500.02, -187500.02, -187500.02, -187500.02, -187500.02, -187500.02, 0.000, 0.000, 0.000, 02:42:16.653
216, 30080.22, 8270.17, -187500.02, -187500.02, -187500.02, -187500.02, -187500.02, -187500.02, 0.000, 0.000, 0.000, 02:42:16.654
217, 30074.67, 8259.93, -187500.02, -187500.02, -187500.02, -187500.02, -187500.02, -187500.02, 0.000, 0.000, 0.000, 02:42:16.654
218, 30066.74, 8258.66, -187500.02, -187500.02, -187500.02, -187500.02, -187500.02, -187500.02, 0.000, 0.000, 0.000, 02:42:16.654
219, 30062.20, 8243.99, -187500.02, -187500.02, -187500.02, -187500.02, -187500.02, -187500.02, 0.000, 0.000, 0.000, 02:42:16.654
220, 30085.98, 8254.63, -187500.02, -187500.02, -187500.02, -187500.02, -187500.02, -187500.02, 0.000, 0.000, 0.000, 02:42:16.654
221, 30089.16, 8255.53, -187500.02, -187500.02, -187500.02, -187500.02, -187500.02, -187500.02, 0.000, 0.000, 0.000, 02:42:16.655
222, 30064.50, 8261.67, -187500.02, -187500.02, -187500.02, -187500.02, -187500.02, -187500.02, 0.000, 0.000, 0.000, 02:42:16.655
223, 30054.04, 8259.86, -187500.02, -187500.02, -187500.02, -187500.02, -187500.02, -187500.02, 0.000, 0.000, 0.000, 02:42:16.655
224, 30095.75, 8264.36, -187500.02, -187500.02, -187500.02, -187500.02, -187500.02, -187500.02, 0.204, 0.990, -0.092, 02:42:16.655
225, 30104.00, 8298.84, -187500.02, -187500.02, -187500.02, -187500.02, -187500.02, -187500.02, 0.000, 0.000, 0.000, 02:42:16.655
226, 30080.60, 8277.70, -187500.02, -187500.02, -187500.02, -187500.02, -187500.02, -187500.02, 0.000, 0.000, 0.000, 02:42:16.655
227, 30073.18, 8262.41, -187500.02, -187500.02, -187500.02, -187500.02, -187500.02, -187500.02, 0.000, 0.000, 0.000, 02:42:16.655
228, 30086.36, 8257.90, -187500.02, -187500.02, -187500.02, -187500.02, -187500.02, -187500.02, 0.000, 0.000, 0.000, 02:42:16.655
229, 30086.01, 8260.31, -187500.02, -187500.02, -187500.02, -187500.02, -187500.02, -187500.02, 0.000, 0.000, 0.000, 02:42:16.655
230, 30075.37, 8252.84, -187500.02, -187500.02, -187500.02, -187500.02, -187500.02, -187500.02, 0.000, 0.000, 0.000, 02:42:16.656
231, 30062.04, 8227.03, -187500.02, -187500.02, -187500.02, -187500.02, -187500.02, -187500.02, 0.000, 0.000, 0.000, 02:42:16.656
232, 30061.89, 8243.79, -187500.02, -187500.02, -187500.02, -187500.02, -187500.02, -187500.02, 0.000, 0.000, 0.000, 02:42:16.656
233, 30082.18, 8282.26, -187500.02, -187500.02, -187500.02, -187500.02, -187500.02, -187500.02, 0.000, 0.000, 0.000, 02:42:16.656
234, 30085.92, 8273.86, -187500.02, -187500.02, -187500.02, -187500.02, -187500.02, -187500.02, 0.206, 0.992, -0.098, 02:42:16.656
235, 30057.17, 8251.50, -187500.02, -187500.02, -187500.02, -187500.02, -187500.02, -187500.02, 0.000, 0.000, 0.000, 02:42:16.656
236, 30077.02, 8226.94, -187500.02, -187500.02, -187500.02, -187500.02, -187500.02, -187500.02, 0.000, 0.000, 0.000, 02:42:16.657
237, 30085.25, 8249.72, -187500.02, -187500.02, -187500.02, -187500.02, -187500.02, -187500.02, 0.000, 0.000, 0.000, 02:42:16.657
238, 30070.61, 8257.02, -187500.02, -187500.02, -187500.02, -187500.02, -187500.02, -187500.02, 0.000, 0.000, 0.000, 02:42:16.657
239, 30057.20, 8240.89, -187500.02, -187500.02, -187500.02, -187500.02, -187500.02, -187500.02, 0.000, 0.000, 0.000, 02:42:16.657
240, 30058.24, 8242.99, -187500.02, -187500.02, -187500.02, -187500.02, -187500.02, -187500.02, 0.000, 0.000, 0.000, 02:42:16.657
241, 30079.19, 8242.94, -187500.02, -187500.02, -187500.02, -187500.02, -187500.02, -187500.02, 0.000, 0.000, 0.000, 02:42:16.657
242, 30078.63, 8247.41, -187500.02, -187500.02, -187500.02, -187500.02, -187500.02, -187500.02, 0.000, 0.000, 0.000, 02:42:17.119
243, 30070.09, 8246.85, -187500.02, -187500.02, -187500.02, -187500.02, -187500.02, -187500.02, 0.000, 0.000, 0.000, 02:42:17.119
244, 30056.17, 8228.41, -187500.02, -187500.02, -187500.02, -187500.02, -187500.02, -187500.02, 0.204, 0.992, -0.094, 02:42:17.120
245, 30079.39, 8233.78, -187500.02, -187500.02, -187500.02, -187500.02, -187500.02, -187500.02, 0.000, 0.000, 0.000, 02:42:17.120
246, 30077.04, 8235.12, -187500.02, -187500.02, -187500.02, -187500.02, -187500.02, -187500.02, 0.000, 0.000, 0.000, 02:42:17.120
247, 30061.42, 8232.55, -187500.02, -187500.02, -187500.02, -187500.02, -187500.02, -187500.02, 0.000, 0.000, 0.000, 02:42:17.120
248, 30041.48, 8226.27, -187500.02, -187500.02, -187500.02, -187500.02, -187500.02, -187500.02, 0.000, 0.000, 0.000, 02:42:17.120
249, 30069.62, 8218.60, -187500.02, -187500.02, -187500.02, -187500.02, -187500.02, -187500.02, 0.000, 0.000, 0.000, 02:42:17.120
250, 30087.26, 8220.26, -187500.02, -187500.02, -187500.02, -187500.02, -187500.02, -187500.02, 0.000, 0.000, 0.000, 02:42:17.121
251, 30059.99, 8207.63, -187500.02, -187500.02, -187500.02, -187500.02, -187500.02, -187500.02, 0.000, 0.000, 0.000, 02:42:17.121
252, 30038.69, 8207.63, -187500.02, -187500.02, -187500.02, -187500.02, -187500.02, -187500.02, 0.000, 0.000, 0.000, 02:42:17.121
253, 30063.41, 8231.68, -187500.02, -187500.02, -187500.02, -187500.02, -187500.02, -187500.02, 0.000, 0.000, 0.000, 02:42:17.121
254, 30073.80, 8260.36, -187500.02, -187500.02, -187500.02, -187500.02, -187500.02, -187500.02, 0.202, 0.998, -0.094, 02:42:17.121
255, 30063.92, 8259.77, -187500.02, -187500.02, -187500.02, -187500.02, -187500.02, -187500.02, 0.000, 0.000, 0.000, 02:42:17.121
0, 30038.13, 8234.76, -187500.02, -187500.02, -187500.02, -187500.02, -187500.02, -187500.02, 0.000, 0.000, 0.000, 02:42:17.122
1, 30063.07, 8217.75, -187500.02, -187500.02, -187500.02, -187500.02, -187500.02, -187500.02, 0.000, 0.000, 0.000, 02:42:17.122
2, 30083.97, 8222.00, -187500.02, -187500.02, -187500.02, -187500.02, -187500.02, -187500.02, 0.000, 0.000, 0.000, 02:42:17.122
3, 30087.39, 8234.40, -187500.02, -187500.02, -187500.02, -187500.02, -187500.02, -187500.02, 0.000, 0.000, 0.000, 02:42:17.122
4, 30069.55, 8220.95, -187500.02, -187500.02, -187500.02, -187500.02, -187500.02, -187500.02, 0.000, 0.000, 0.000, 02:42:17.122
5, 30067.63, 8225.42, -187500.02, -187500.02, -187500.02, -187500.02, -187500.02, -187500.02, 0.000, 0.000, 0.000, 02:42:17.122
6, 30072.77, 8239.61, -187500.02, -187500.02, -187500.02, -187500.02, -187500.02, -187500.02, 0.000, 0.000, 0.000, 02:42:17.123
7, 30072.35, 8212.68, -187500.02, -187500.02, -187500.02, -187500.02, -187500.02, -187500.02, 0.198, 0.994, -0.090, 02:42:17.123
8, 30064.21, 8199.94, -187500.02, -187500.02, -187500.02, -187500.02, -187500.02, -187500.02, 0.000, 0.000, 0.000, 02:42:17.123
9, 30046.58, 8190.01, -187500.02, -187500.02, -187500.02, -187500.02, -187500.02, -187500.02, 0.000, 0.000, 0.000, 02:42:17.123
10, 30052.97, 8223.50, -187500.02, -187500.02, -187500.02, -187500.02, -187500.02, -187500.02, 0.000, 0.000, 0.000, 02:42:17.123
11, 30045.41, 8245.69, -187500.02, -187500.02, -187500.02, -187500.02, -187500.02, -187500.02, 0.000, 0.000, 0.000, 02:42:17.123
12, 30048.25, 8224.32, -187500.02, -187500.02, -187500.02, -187500.02, -187500.02, -187500.02, 0.000, 0.000, 0.000, 02:42:17.123
13, 30037.12, 8217.82, -187500.02, -187500.02, -187500.02, -187500.02, -187500.02, -187500.02, 0.000, 0.000, 0.000, 02:42:17.124
14, 30058.36, 8229.67, -187500.02, -187500.02, -187500.02, -187500.02, -187500.02, -187500.02, 0.000, 0.000, 0.000, 02:42:17.124
15, 30073.36, 8229.26, -187500.02, -187500.02, -187500.02, -187500.02, -187500.02, -187500.02, 0.000, 0.000, 0.000, 02:42:17.124
16, 30057.53, 8233.58, -187500.02, -187500.02, -187500.02, -187500.02, -187500.02, -187500.02, 0.000, 0.000, 0.000, 02:42:17.124
17, 30032.85, 8235.92, -187500.02, -187500.02, -187500.02, -187500.02, -187500.02, -187500.02, 0.206, 0.996, -0.088, 02:42:17.124
18, 30048.99, 8229.82, -187500.02, -187500.02, -187500.02, -187500.02, -187500.02, -187500.02, 0.000, 0.000, 0.000, 02:42:17.125
19, 30057.57, 8234.23, -187500.02, -187500.02, -187500.02, -187500.02, -187500.02, -187500.02, 0.000, 0.000, 0.000, 02:42:17.125
20, 30055.25, 8231.75, -187500.02, -187500.02, -187500.02, -187500.02, -187500.02, -187500.02, 0.000, 0.000, 0.000, 02:42:17.125
21, 30033.50, 8206.84, -187500.02, -187500.02, -187500.02, -187500.02, -187500.02, -187500.02, 0.000, 0.000, 0.000, 02:42:17.125
22, 30051.05, 8200.47, -187500.02, -187500.02, -187500.02, -187500.02, -187500.02, -187500.02, 0.000, 0.000, 0.000, 02:42:17.125
23, 30054.00, 8207.43, -187500.02, -187500.02, -187500.02, -187500.02, -187500.02, -187500.02, 0.000, 0.000, 0.000, 02:42:17.125
24, 30048.14, 8209.37, -187500.02, -187500.02, -187500.02, -187500.02, -187500.02, -187500.02, 0.000, 0.000, 0.000, 02:42:17.125
25, 30037.64, 8214.06, -187500.02, -187500.02, -187500.02, -187500.02, -187500.02, -187500.02, 0.000, 0.000, 0.000, 02:42:17.125
26, 30052.41, 8199.67, -187500.02, -187500.02, -187500.02, -187500.02, -187500.02, -187500.02, 0.000, 0.000, 0.000, 02:42:17.126
27, 30063.01, 8197.52, -187500.02, -187500.02, -187500.02, -187500.02, -187500.02, -187500.02, 0.198, 0.996, -0.094, 02:42:17.126
28, 30054.13, 8199.31, -187500.02, -187500.02, -187500.02, -187500.02, -187500.02, -187500.02, 0.000, 0.000, 0.000, 02:42:17.126
29, 30032.52, 8200.30, -187500.02, -187500.02, -187500.02, -187500.02, -187500.02, -187500.02, 0.000, 0.000, 0.000, 02:42:17.126
30, 30047.83, 8204.68, -187500.02, -187500.02, -187500.02, -187500.02, -187500.02, -187500.02, 0.000, 0.000, 0.000, 02:42:17.126
31, 30076.10, 8211.40, -187500.02, -187500.02, -187500.02, -187500.02, -187500.02, -187500.02, 0.000, 0.000, 0.000, 02:42:17.126
32, 30073.94, 8222.27, -187500.02, -187500.02, -187500.02, -187500.02, -187500.02, -187500.02, 0.000, 0.000, 0.000, 02:42:17.126
33, 30055.59, 8229.78, -187500.02, -187500.02, -187500.02, -187500.02, -187500.02, -187500.02, 0.000, 0.000, 0.000, 02:42:17.126
34, 30041.17, 8219.34, -187500.02, -187500.02, -187500.02, -187500.02, -187500.02, -187500.02, 0.000, 0.000, 0.000, 02:42:17.127
35, 30068.97, 8210.91, -187500.02, -187500.02, -187500.02, -187500.02, -187500.02, -187500.02, 0.000, 0.000, 0.000, 02:42:17.127
36, 30050.27, 8214.40, -187500.02, -187500.02, -187500.02, -187500.02, -187500.02, -187500.02, 0.000, 0.000, 0.000, 02:42:17.127
37, 30050.40, 8185.34, -187500.02, -187500.02, -187500.02, -187500.02, -187500.02, -187500.02, 0.194, 0.988, -0.094, 02:42:17.127
38, 30037.35, 8168.06, -187500.02, -187500.02, -187500.02, -187500.02, -187500.02, -187500.02, 0.000, 0.000, 0.000, 02:42:17.127
39, 30046.42, 8199.13, -187500.02, -187500.02, -187500.02, -187500.02, -187500.02, -187500.02, 0.000, 0.000, 0.000, 02:42:17.127
40, 30052.97, 8216.46, -187500.02, -187500.02, -187500.02, -187500.02, -187500.02, -187500.02, 0.000, 0.000, 0.000, 02:42:17.128
41, 30038.82, 8204.45, -187500.02, -187500.02, -187500.02, -187500.02, -187500.02, -187500.02, 0.000, 0.000, 0.000, 02:42:17.128
42, 30023.46, 8170.28, -187500.02, -187500.02, -187500.02, -187500.02, -187500.02, -187500.02, 0.000, 0.000, 0.000, 02:42:17.128
43, 30045.66, 8199.25, -187500.02, -187500.02, -187500.02, -187500.02, -187500.02, -187500.02, 0.000, 0.000, 0.000, 02:42:17.128
44, 30043.94, 8225.40, -187500.02, -187500.02, -187500.02, -187500.02, -187500.02, -187500.02, 0.000, 0.000, 0.000, 02:42:17.128
45, 30044.57, 8202.11, -187500.02, -187500.02, -187500.02, -187500.02, -187500.02, -187500.02, 0.000, 0.000, 0.000, 02:42:17.128
46, 30020.18, 8182.37, -187500.02, -187500.02, -187500.02, -187500.02, -187500.02, -187500.02, 0.000, 0.000, 0.000, 02:42:17.128
47, 30045.30, 8182.77, -187500.02, -187500.02, -187500.02, -187500.02, -187500.02, -187500.02, 0.198, 0.994, -0.092, 02:42:17.128
48, 30060.77, 8207.69, -187500.02, -187500.02, -187500.02, -187500.02, -187500.02, -187500.02, 0.000, 0.000, 0.000, 02:42:17.128
49, 30061.71, 8195.45, -187500.02, -187500.02, -187500.02, -187500.02, -187500.02, -187500.02, 0.000, 0.000, 0.000, 02:42:17.129
50, 30037.46, 8190.77, -187500.02, -187500.02, -187500.02, -187500.02, -187500.02, -187500.02, 0.000, 0.000, 0.000, 02:42:17.129
51, 30043.45, 8157.40, -187500.02, -187500.02, -187500.02, -187500.02, -187500.02, -187500.02, 0.000, 0.000, 0.000, 02:42:17.129
52, 30046.64, 8176.78, -187500.02, -187500.02, -187500.02, -187500.02, -187500.02, -187500.02, 0.000, 0.000, 0.000, 02:42:17.129
53, 30040.81, 8186.26, -187500.02, -187500.02, -187500.02, -187500.02, -187500.02, -187500.02, 0.000, 0.000, 0.000, 02:42:17.129
54, 30029.25, 8166.90, -187500.02, -187500.02, -187500.02, -187500.02, -187500.02, -187500.02, 0.000, 0.000, 0.000, 02:42:17.129
55, 30037.86, 8132.10, -187500.02, -187500.02, -187500.02, -187500.02, -187500.02, -187500.02, 0.000, 0.000, 0.000, 02:42:17.129
56, 30061.66, 8175.08, -187500.02, -187500.02, -187500.02, -187500.02, -187500.02, -187500.02, 0.000, 0.000, 0.000, 02:42:17.129
57, 30061.31, 8172.09, -187500.02, -187500.02, -187500.02, -187500.02, -187500.02, -187500.02, 0.202, 0.996, -0.094, 02:42:17.130
58, 30042.73, 8166.28, -187500.02, -187500.02, -187500.02, -187500.02, -187500.02, -187500.02, 0.000, 0.000, 0.000, 02:42:17.130
59, 30032.72, 8173.41, -187500.02, -187500.02, -187500.02, -187500.02, -187500.02, -187500.02, 0.000, 0.000, 0.000, 02:42:17.130
60, 30064.26, 8181.61, -187500.02, -187500.02, -187500.02, -187500.02, -187500.02, -187500.02, 0.000, 0.000, 0.000, 02:42:17.130
61, 30058.11, 8178.57, -187500.02, -187500.02, -187500.02, -187500.02, -187500.02, -187500.02, 0.000, 0.000, 0.000, 02:42:17.130
62, 30044.65, 8153.18, -187500.02, -187500.02, -187500.02, -187500.02, -187500.02, -187500.02, 0.000, 0.000, 0.000, 02:42:17.130
63, 30031.80, 8167.06, -187500.02, -187500.02, -187500.02, -187500.02, -187500.02, -187500.02, 0.000, 0.000, 0.000, 02:42:17.130
64, 30046.24, 8172.49, -187500.02, -187500.02, -187500.02, -187500.02, -187500.02, -187500.02, 0.000, 0.000, 0.000, 02:42:17.130
65, 30051.09, 8171.22, -187500.02, -187500.02, -187500.02, -187500.02, -187500.02, -187500.02, 0.000, 0.000, 0.000, 02:42:17.131
66, 30038.11, 8168.42, -187500.02, -187500.02, -187500.02, -187500.02, -187500.02, -187500.02, 0.202, 0.994, -0.096, 02:42:17.131
67, 30021.65, 8145.40, -187500.02, -187500.02, -187500.02, -187500.02, -187500.02, -187500.02, 0.000, 0.000, 0.000, 02:42:17.131
68, 30050.98, 8138.02, -187500.02, -187500.02, -187500.02, -187500.02, -187500.02, -187500.02, 0.000, 0.000, 0.000, 02:42:17.131
69, 30056.48, 8175.82, -187500.02, -187500.02, -187500.02, -187500.02, -187500.02, -187500.02, 0.000, 0.000, 0.000, 02:42:17.131
70, 30036.34, 8186.21, -187500.02, -187500.02, -187500.02, -187500.02, -187500.02, -187500.02, 0.000, 0.000, 0.000, 02:42:17.131
71, 30015.44, 8179.42, -187500.02, -187500.02, -187500.02, -187500.02, -187500.02, -187500.02, 0.000, 0.000, 0.000, 02:42:17.131
72, 30035.94, 8180.98, -187500.02, -187500.02, -187500.02, -187500.02, -187500.02, -187500.02, 0.000, 0.000, 0.000, 02:42:17.131
73, 30061.82, 8191.71, -187500.02, -187500.02, -187500.02, -187500.02, -187500.02, -187500.02, 0.000, 0.000, 0.000, 02:42:17.132
74, 30065.08, 8216.97, -187500.02, -187500.02, -187500.02, -187500.02, -187500.02, -187500.02, 0.000, 0.000, 0.000, 02:42:17.132
75, 30048.75, 8187.49, -187500.02, -187500.02, -187500.02, -187500.02, -187500.02, -187500.02, 0.000, 0.000, 0.000, 02:42:17.132
76, 30058.96, 8187.06, -187500.02, -187500.02, -187500.02, -187500.02, -187500.02, -187500.02, 0.200, 0.994, -0.096, 02:42:17.132
77, 30055.96, 8178.99, -187500.02, -187500.02, -187500.02, -187500.02, -187500.02, -187500.02, 0.000, 0.000, 0.000, 02:42:17.132
78, 30050.64, 8191.22, -187500.02, -187500.02, -187500.02, -187500.02, -187500.02, -187500.02, 0.000, 0.000, 0.000, 02:42:17.132
79, 30041.84, 8233.56, -187500.02, -187500.02, -187500.02, -187500.02, -187500.02, -187500.02, 0.000, 0.000, 0.000, 02:42:17.132
80, 30038.15, 8251.21, -187500.02, -187500.02, -187500.02, -187500.02, -187500.02, -187500.02, 0.000, 0.000, 0.000, 02:42:17.132
81, 30053.84, 8248.64, -187500.02, -187500.02, -187500.02, -187500.02, -187500.02, -187500.02, 0.000, 0.000, 0.000, 02:42:17.132
82, 30059.77, 8220.37, -187500.02, -187500.02, -187500.02, -187500.02, -187500.02, -187500.02, 0.000, 0.000, 0.000, 02:42:17.132
83, 30059.32, 8215.47, -187500.02, -187500.02, -187500.02, -187500.02, -187500.02, -187500.02, 0.000, 0.000, 0.000, 02:42:17.133
84, 30066.40, 8184.81, -187500.02, -187500.02, -187500.02, -187500.02, -187500.02, -187500.02, 0.000, 0.000, 0.000, 02:42:17.133
85, 30089.69, 8228.57, -187500.02, -187500.02, -187500.02, -187500.02, -187500.02, -187500.02, 0.000, 0.000, 0.000, 02:42:17.133
86, 30070.02, 8243.08, -187500.02, -187500.02, -187500.02, -187500.02, -187500.02, -187500.02, 0.200, 0.992, -0.094, 02:42:17.133
87, 30058.13, 8200.54, -187500.02, -187500.02, -187500.02, -187500.02, -187500.02, -187500.02, 0.000, 0.000, 0.000, 02:42:17.133
88, 30034.89, 8197.64, -187500.02, -187500.02, -187500.02, -187500.02, -187500.02, -187500.02, 0.000, 0.000, 0.000, 02:42:17.133
89, 30055.29, 8196.94, -187500.02, -187500.02, -187500.02, -187500.02, -187500.02, -187500.02, 0.000, 0.000, 0.000, 02:42:17.133
90, 30053.62, 8228.17, -187500.02, -187500.02, -187500.02, -187500.02, -187500.02, -187500.02, 0.000, 0.000, 0.000, 02:42:17.133
91, 30040.23, 8227.43, -187500.02, -187500.02, -187500.02, -187500.02, -187500.02, -187500.02, 0.000, 0.000, 0.000, 02:42:17.133
92, 30019.64, 8182.88, -187500.02, -187500.02, -187500.02, -187500.02, -187500.02, -187500.02, 0.000, 0.000, 0.000, 02:42:17.133
93, 30054.33, 8163.95, -187500.02, -187500.02, -187500.02, -187500.02, -187500.02, -187500.02, 0.000, 0.000, 0.000, 02:42:17.134
94, 30064.59, 8185.14, -187500.02, -187500.02, -187500.02, -187500.02, -187500.02, -187500.02, 0.000, 0.000, 0.000, 02:42:17.134
95, 30043.83, 8187.06, -187500.02, -187500.02, -187500.02, -187500.02, -187500.02, -187500.02, 0.000, 0.000, 0.000, 02:42:17.134
96, 30033.41, 8170.05, -187500.02, -187500.02, -187500.02, -187500.02, -187500.02, -187500.02, 0.204, 0.998, -0.094, 02:42:17.134
97, 30029.32, 8200.52, -187500.02, -187500.02, -187500.02, -187500.02, -187500.02, -187500.02, 0.000, 0.000, 0.000, 02:42:17.134
98, 30039.92, 8199.98, -187500.02, -187500.02, -187500.02, -187500.02, -187500.02, -187500.02, 0.000, 0.000, 0.000, 02:42:17.134
99, 30037.21, 8193.28, -187500.02, -187500.02, -187500.02, -187500.02, -187500.02, -187500.02, 0.000, 0.000, 0.000, 02:42:17.134
100, 30019.64, 8197.52, -187500.02, -187500.02, -187500.02, -187500.02, -187500.02, -187500.02, 0.000, 0.000, 0.000, 02:42:17.134
101, 30030.44, 8218.54, -187500.02, -187500.02, -187500.02, -187500.02, -187500.02, -187500.02, 0.000, 0.000, 0.000, 02:42:17.134
102, 30040.59, 8226.69, -187500.02, -187500.02, -187500.02, -187500.02, -187500.02, -187500.02, 0.000, 0.000, 0.000, 02:42:17.134
103, 30035.20, 8196.03, -187500.02, -187500.02, -187500.02, -187500.02, -187500.02, -187500.02, 0.000, 0.000, 0.000, 02:42:17.135
104, 30017.83, 8195.54, -187500.02, -187500.02, -187500.02, -187500.02, -187500.02, -187500.02, 0.000, 0.000, 0.000, 02:42:17.135
105, 30019.84, 8174.50, -187500.02, -187500.02, -187500.02, -187500.02, -187500.02, -187500.02, 0.000, 0.000, 0.000, 02:42:17.135
106, 30033.75, 8196.79, -187500.02, -187500.02, -187500.02, -187500.02, -187500.02, -187500.02, 0.204, 0.998, -0.086, 02:42:17.600
107, 30036.14, 8196.36, -187500.02, -187500.02, -187500.02, -187500.02, -187500.02, -187500.02, 0.000, 0.000, 0.000, 02:42:17.601
108, 30031.98, 8172.92, -187500.02, -187500.02, -187500.02, -187500.02, -187500.02, -187500.02, 0.000, 0.000, 0.000, 02:42:17.601
109, 30023.26, 8163.53, -187500.02, -187500.02, -187500.02, -187500.02, -187500.02, -187500.02, 0.000, 0.000, 0.000, 02:42:17.601
110, 30047.16, 8213.30, -187500.02, -187500.02, -187500.02, -187500.02, -187500.02, -187500.02, 0.000, 0.000, 0.000, 02:42:17.601
111, 30056.01, 8217.31, -187500.02, -187500.02, -187500.02, -187500.02, -187500.02, -187500.02, 0.000, 0.000, 0.000, 02:42:17.601
112, 30048.90, 8195.00, -187500.02, -187500.02, -187500.02, -187500.02, -187500.02, -187500.02, 0.000, 0.000, 0.000, 02:42:17.601
113, 30039.16, 8195.56, -187500.02, -187500.02, -187500.02, -187500.02, -187500.02, -187500.02, 0.000, 0.000, 0.000, 02:42:17.601
114, 30059.05, 8168.40, -187500.02, -187500.02, -187500.02, -187500.02, -187500.02, -187500.02, 0.000, 0.000, 0.000, 02:42:17.602
115, 30060.17, 8184.11, -187500.02, -187500.02, -187500.02, -187500.02, -187500.02, -187500.02, 0.000, 0.000, 0.000, 02:42:17.602
116, 30055.74, 8202.11, -187500.02, -187500.02, -187500.02, -187500.02, -187500.02, -187500.02, 0.198, 0.998, -0.084, 02:42:17.602
117, 30034.35, 8205.48, -187500.02, -187500.02, -187500.02, -187500.02, -187500.02, -187500.02, 0.000, 0.000, 0.000, 02:42:17.602
118, 30042.82, 8206.62, -187500.02, -187500.02, -187500.02, -187500.02, -187500.02, -187500.02, 0.000, 0.000, 0.000, 02:42:17.602
119, 30061.20, 8179.69, -187500.02, -187500.02, -187500.02, -187500.02, -187500.02, -187500.02, 0.000, 0.000, 0.000, 02:42:17.602
120, 30050.62, 8175.78, -187500.02, -187500.02, -187500.02, -187500.02, -187500.02, -187500.02, 0.000, 0.000, 0.000, 02:42:17.602
121, 30031.31, 8170.72, -187500.02, -187500.02, -187500.02, -187500.02, -187500.02, -187500.02, 0.000, 0.000, 0.000, 02:42:17.603
122, 30034.80, 8186.64, -187500.02, -187500.02, -187500.02, -187500.02, -187500.02, -187500.02, 0.000, 0.000, 0.000, 02:42:17.603
123, 30054.96, 8179.04, -187500.02, -187500.02, -187500.02, -187500.02, -187500.02, -187500.02, 0.000, 0.000, 0.000, 02:42:17.603
124, 30068.28, 8149.98, -187500.02, -187500.02, -187500.02, -187500.02, -187500.02, -187500.02, 0.000, 0.000, 0.000, 02:42:17.603
125, 30050.44, 8161.31, -187500.02, -187500.02, -187500.02, -187500.02, -187500.02, -187500.02, 0.000, 0.000, 0.000, 02:42:17.603
126, 30043.56, 8158.50, -187500.02, -187500.02, -187500.02, -187500.02, -187500.02, -187500.02, 0.204, 0.998, -0.086, 02:42:17.603
127, 30060.73, 8177.05, -187500.02, -187500.02, -187500.02, -187500.02, -187500.02, -187500.02, 0.000, 0.000, 0.000, 02:42:17.604
128, 30059.81, 8173.23, -187500.02, -187500.02, -187500.02, -187500.02, -187500.02, -187500.02, 0.000, 0.000, 0.000, 02:42:17.604
129, 30031.36, 8165.45, -187500.02, -187500.02, -187500.02, -187500.02, -187500.02, -187500.02, 0.000, 0.000, 0.000, 02:42:17.604
130, 30026.24, 8134.98, -187500.02, -187500.02, -187500.02, -187500.02, -187500.02, -187500.02, 0.000, 0.000, 0.000, 02:42:17.604
131, 30045.75, 8155.57, -187500.02, -187500.02, -187500.02, -187500.02, -187500.02, -187500.02, 0.000, 0.000, 0.000, 02:42:17.604
132, 30042.33, 8170.75, -187500.02, -187500.02, -187500.02, -187500.02, -187500.02, -187500.02, 0.000, 0.000, 0.000, 02:42:17.604
133, 30022.37, 8166.79, -187500.02, -187500.02, -187500.02, -187500.02, -187500.02, -187500.02, 0.000, 0.000, 0.000, 02:42:17.604
134, 30013.07, 8143.99, -187500.02, -187500.02, -187500.02, -187500.02, -187500.02, -187500.02, 0.000, 0.000, 0.000, 02:42:17.604
135, 30049.84, 8163.88, -187500.02, -187500.02, -187500.02, -187500.02, -187500.02, -187500.02, 0.198, 0.998, -0.090, 02:42:17.605
136, 30060.37, 8169.76, -187500.02, -187500.02, -187500.02, -187500.02, -187500.02, -187500.02, 0.000, 0.000, 0.000, 02:42:17.605
137, 30045.46, 8169.63, -187500.02, -187500.02, -187500.02, -187500.02, -187500.02, -187500.02, 0.000, 0.000, 0.000, 02:42:17.605
138, 30029.54, 8134.78, -187500.02, -187500.02, -187500.02, -187500.02, -187500.02, -187500.02, 0.000, 0.000, 0.000, 02:42:17.605
139, 30051.67, 8148.42, -187500.02, -187500.02, -187500.02, -187500.02, -187500.02, -187500.02, 0.000, 0.000, 0.000, 02:42:17.605
140, 30071.68, 8194.66, -187500.02, -187500.02, -187500.02, -187500.02, -187500.02, -187500.02, 0.000, 0.000, 0.000, 02:42:17.605
141, 30051.32, 8187.51, -187500.02, -187500.02, -187500.02, -187500.02, -187500.02, -187500.02, 0.000, 0.000, 0.000, 02:42:17.605
142, 30013.01, 8157.54, -187500.02, -187500.02, -187500.02, -187500.02, -187500.02, -187500.02, 0.000, 0.000, 0.000, 02:42:17.606
143, 30036.79, 8142.92, -187500.02, -187500.02, -187500.02, -187500.02, -187500.02, -187500.02, 0.000, 0.000, 0.000, 02:42:17.606
144, 30048.07, 8149.92, -187500.02, -187500.02, -187500.02, -187500.02, -187500.02, -187500.02, 0.000, 0.000, 0.000, 02:42:17.606
145, 30034.04, 8151.21, -187500.02, -187500.02, -187500.02, -187500.02, -187500.02, -187500.02, 0.200, 0.996, -0.092, 02:42:17.606
146, 30023.98, 8142.38, -187500.02, -187500.02, -187500.02, -187500.02, -187500.02, -187500.02, 0.000, 0.000, 0.000, 02:42:17.606
147, 30033.99, 8146.05, -187500.02, -187500.02, -187500.02, -187500.02, -187500.02, -187500.02, 0.000, 0.000, 0.000, 02:42:17.606
148, 30049.68, 8163.42, -187500.02, -187500.02, -187500.02, -187500.02, -187500.02, -187500.02, 0.000, 0.000, 0.000, 02:42:17.606
149, 30044.28, 8163.46, -187500.02, -187500.02, -187500.02, -187500.02, -187500.02, -187500.02, 0.000, 0.000, 0.000, 02:42:17.606
150, 30039.13, 8132.77, -187500.02, -187500.02, -187500.02, -187500.02, -187500.02, -187500.02, 0.000, 0.000, 0.000, 02:42:17.606
151, 30054.29, 8140.04, -187500.02, -187500.02, -187500.02, -187500.02, -187500.02, -187500.02, 0.000, 0.000, 0.000, 02:42:17.607
152, 30064.68, 8168.24, -187500.02, -187500.02, -187500.02, -187500.02, -187500.02, -187500.02, 0.000, 0.000, 0.000, 02:42:17.607
153, 30070.61, 8162.50, -187500.02, -187500.02, -187500.02, -187500.02, -187500.02, -187500.02, 0.000, 0.000, 0.000, 02:42:17.607
154, 30039.07, 8170.26, -187500.02, -187500.02, -187500.02, -187500.02, -187500.02, -187500.02, 0.000, 0.000, 0.000, 02:42:17.607
155, 30047.31, 8134.36, -187500.02, -187500.02, -187500.02, -187500.02, -187500.02, -187500.02, 0.204, 0.994, -0.096, 02:42:17.607
156, 30076.30, 8190.30, -187500.02, -187500.02, -187500.02, -187500.02, -187500.02, -187500.02, 0.000, 0.000, 0.000, 02:42:17.607
157, 30064.08, 8230.83, -187500.02, -187500.02, -187500.02, -187500.02, -187500.02, -187500.02, 0.000, 0.000, 0.000, 02:42:17.607
158, 30055.14, 8240.10, -187500.02, -187500.02, -187500.02, -187500.02, -187500.02, -187500.02, 0.000, 0.000, 0.000, 02:42:17.608
159, 30037.35, 8236.77, -187500.02, -187500.02, -187500.02, -187500.02, -187500.02, -187500.02, 0.000, 0.000, 0.000, 02:42:17.608
160, 30063.95, 8226.42, -187500.02, -187500.02, -187500.02, -187500.02, -187500.02, -187500.02, 0.000, 0.000, 0.000, 02:42:17.608
161, 30064.68, 8233.80, -187500.02, -187500.02, -187500.02, -187500.02, -187500.02, -187500.02, 0.000, 0.000, 0.000, 02:42:17.608
162, 30051.61, 8233.62, -187500.02, -187500.02, -187500.02, -187500.02, -187500.02, -187500.02, 0.000, 0.000, 0.000, 02:42:17.608
163, 30049.35, 8215.14, -187500.02, -187500.02, -187500.02, -187500.02, -187500.02, -187500.02, 0.000, 0.000, 0.000, 02:42:17.608
164, 30073.89, 8224.30, -187500.02, -187500.02, -187500.02, -187500.02, -187500.02, -187500.02, 0.000, 0.000, 0.000, 02:42:17.608
165, 30071.28, 8241.67, -187500.02, -187500.02, -187500.02, -187500.02, -187500.02, -187500.02, 0.206, 0.994, -0.090, 02:42:17.609
166, 30070.31, 8245.51, -187500.02, -187500.02, -187500.02, -187500.02, -187500.02, -187500.02, 0.000, 0.000, 0.000, 02:42:17.609
167, 30043.00, 8229.69, -187500.02, -187500.02, -187500.02, -187500.02, -187500.02, -187500.02, 0.000, 0.000, 0.000, 02:42:17.609
168, 30053.01, 8210.38, -187500.02, -187500.02, -187500.02, -187500.02, -187500.02, -187500.02, 0.000, 0.000, 0.000, 02:42:17.609
169, 30059.68, 8239.52, -187500.02, -187500.02, -187500.02, -187500.02, -187500.02, -187500.02, 0.000, 0.000, 0.000, 02:42:17.609
170, 30045.64, 8261.54, -187500.02, -187500.02, -187500.02, -187500.02, -187500.02, -187500.02, 0.000, 0.000, 0.000, 02:42:17.609
171, 30040.12, 8214.56, -187500.02, -187500.02, -187500.02, -187500.02, -187500.02, -187500.02, 0.000, 0.000, 0.000, 02:42:17.609
172, 30061.35, 8210.26, -187500.02, -187500.02, -187500.02, -187500.02, -187500.02, -187500.02, 0.000, 0.000, 0.000, 02:42:17.610
173, 30095.19, 8197.08, -187500.02, -187500.02, -187500.02, -187500.02, -187500.02, -187500.02, 0.000, 0.000, 0.000, 02:42:17.610
174, 30088.46, 8215.52, -187500.02, -187500.02, -187500.02, -187500.02, -187500.02, -187500.02, 0.000, 0.000, 0.000, 02:42:17.610
175, 30067.52, 8205.91, -187500.02, -187500.02, -187500.02, -187500.02, -187500.02, -187500.02, 0.206, 0.994, -0.092, 02:42:17.610
176, 30055.14, 8240.75, -187500.02, -187500.02, -187500.02, -187500.02, -187500.02, -187500.02, 0.000, 0.000, 0.000, 02:42:17.610
177, 30065.93, 8267.08, -187500.02, -187500.02, -187500.02, -187500.02, -187500.02, -187500.02, 0.000, 0.000, 0.000, 02:42:17.610
178, 30061.66, 8260.11, -187500.02, -187500.02, -187500.02, -187500.02, -187500.02, -187500.02, 0.000, 0.000, 0.000, 02:42:17.610
179, 30047.22, 8252.29, -187500.02, -187500.02, -187500.02, -187500.02, -187500.02, -187500.02, 0.000, 0.000, 0.000, 02:42:17.610
180, 30047.16, 8240.28, -187500.02, -187500.02, -187500.02, -187500.02, -187500.02, -187500.02, 0.000, 0.000, 0.000, 02:42:17.611
181, 30069.46, 8253.69, -187500.02, -187500.02, -187500.02, -187500.02, -187500.02, -187500.02, 0.000, 0.000, 0.000, 02:42:17.611
182, 30056.81, 8271.20, -187500.02, -187500.02, -187500.02, -187500.02, -187500.02, -187500.02, 0.000, 0.000, 0.000, 02:42:17.611
183, 30042.96, 8244.87, -187500.02, -187500.02, -187500.02, -187500.02, -187500.02, -187500.02, 0.000, 0.000, 0.000, 02:42:17.611
184, 30031.87, 8229.82, -187500.02, -187500.02, -187500.02, -187500.02, -187500.02, -187500.02, 0.000, 0.000, 0.000, 02:42:17.611
185, 30058.38, 8231.10, -187500.02, -187500.02, -187500.02, -187500.02, -187500.02, -187500.02, 0.200, 0.998, -0.092, 02:42:17.611
186, 30062.74, 8225.64, -187500.02, -187500.02, -187500.02, -187500.02, -187500.02, -187500.02, 0.000, 0.000, 0.000, 02:42:17.611
187, 30058.36, 8226.25, -187500.02, -187500.02, -187500.02, -187500.02, -187500.02, -187500.02, 0.000, 0.000, 0.000, 02:42:17.611
188, 30044.68, 8231.79, -187500.02, -187500.02, -187500.02, -187500.02, -187500.02, -187500.02, 0.000, 0.000, 0.000, 02:42:17.611
189, 30062.20, 8233.78, -187500.02, -187500.02, -187500.02, -187500.02, -187500.02, -187500.02, 0.000, 0.000, 0.000, 02:42:17.612
190, 30077.62, 8234.72, -187500.02, -187500.02, -187500.02, -187500.02, -187500.02, -187500.02, 0.000, 0.000, 0.000, 02:42:17.612
191, 30067.97, 8246.36, -187500.02, -187500.02, -187500.02, -187500.02, -187500.02, -187500.02, 0.000, 0.000, 0.000, 02:42:17.612
192, 30040.83, 8225.69, -187500.02, -187500.02, -187500.02, -187500.02, -187500.02, -187500.02, 0.000, 0.000, 0.000, 02:42:17.612
193, 30048.43, 8232.44, -187500.02, -187500.02, -187500.02, -187500.02, -187500.02, -187500.02, 0.000, 0.000, 0.000, 02:42:17.612
194, 30061.20, 8242.94, -187500.02, -187500.02, -187500.02, -187500.02, -187500.02, -187500.02, 0.198, 0.996, -0.096, 02:42:17.612
195, 30059.00, 8245.92, -187500.02, -187500.02, -187500.02, -187500.02, -187500.02, -187500.02, 0.000, 0.000, 0.000, 02:42:17.612
196, 30031.56, 8229.76, -187500.02, -187500.02, -187500.02, -187500.02, -187500.02, -187500.02, 0.000, 0.000, 0.000, 02:42:17.613
197, 30037.70, 8227.63, -187500.02, -187500.02, -187500.02, -187500.02, -187500.02, -187500.02, 0.000, 0.000, 0.000, 02:42:17.613
198, 30062.29, 8215.34, -187500.02, -187500.02, -187500.02, -187500.02, -187500.02, -187500.02, 0.000, 0.000, 0.000, 02:42:17.613
199, 30063.63, 8204.27, -187500.02, -187500.02, -187500.02, -187500.02, -187500.02, -187500.02, 0.000, 0.000, 0.000, 02:42:17.613
200, 30046.18, 8187.91, -187500.02, -187500.02, -187500.02, -187500.02, -187500.02, -187500.02, 0.000, 0.000, 0.000, 02:42:17.613
201, 30047.11, 8185.16, -187500.02, -187500.02, -187500.02, -187500.02, -187500.02, -187500.02, 0.000, 0.000, 0.000, 02:42:17.613
202, 30052.54, 8233.22, -187500.02, -187500.02, -187500.02, -187500.02, -187500.02, -187500.02, 0.000, 0.000, 0.000, 02:42:17.614
203, 30055.50, 8228.79, -187500.02, -187500.02, -187500.02, -187500.02, -187500.02, -187500.02, 0.000, 0.000, 0.000, 02:42:17.614
204, 30047.14, 8211.76, -187500.02, -187500.02, -187500.02, -187500.02, -187500.02, -187500.02, 0.200, 0.994, -0.098, 02:42:17.614
205, 30027.24, 8191.78, -187500.02, -187500.02, -187500.02, -187500.02, -187500.02, -187500.02, 0.000, 0.000, 0.000, 02:42:17.614
206, 30047.90, 8230.09, -187500.02, -187500.02, -187500.02, -187500.02, -187500.02, -187500.02, 0.000, 0.000, 0.000, 02:42:17.614
207, 30042.31, 8241.96, -187500.02, -187500.02, -187500.02, -187500.02, -187500.02, -187500.02, 0.000, 0.000, 0.000, 02:42:17.614
208, 30028.38, 8219.32, -187500.02, -187500.02, -187500.02, -187500.02, -187500.02, -187500.02, 0.000, 0.000, 0.000, 02:42:17.614
209, 30020.40, 8211.47, -187500.02, -187500.02, -187500.02, -187500.02, -187500.02, -187500.02, 0.000, 0.000, 0.000, 02:42:17.614
210, 30041.03, 8219.79, -187500.02, -187500.02, -187500.02, -187500.02, -187500.02, -187500.02, 0.000, 0.000, 0.000, 02:42:17.614
211, 30048.43, 8230.60, -187500.02, -187500.02, -187500.02, -187500.02, -187500.02, -187500.02, 0.000, 0.000, 0.000, 02:42:17.615
212, 30043.54, 8232.28, -187500.02, -187500.02, -187500.02, -187500.02, -187500.02, -187500.02, 0.000, 0.000, 0.000, 02:42:17.615
213, 30031.09, 8206.53, -187500.02, -187500.02, -187500.02, -187500.02, -187500.02, -187500.02, 0.000, 0.000, 0.000, 02:42:17.615
214, 30043.22, 8222.67, -187500.02, -187500.02, -187500.02, -187500.02, -187500.02, -187500.02, 0.196, 0.992, -0.092, 02:42:17.615
215, 30048.03, 8223.09, -187500.02, -187500.02, -187500.02, -187500.02, -187500.02, -187500.02, 0.000, 0.000, 0.000, 02:42:17.615
216, 30040.70, 8219.47, -187500.02, -187500.02, -187500.02, -187500.02, -187500.02, -187500.02, 0.000, 0.000, 0.000, 02:42:17.615
217, 30026.64, 8201.86, -187500.02, -187500.02, -187500.02, -187500.02, -187500.02, -187500.02, 0.000, 0.000, 0.000, 02:42:17.615
218, 30026.64, 8185.61, -187500.02, -187500.02, -187500.02, -187500.02, -187500.02, -187500.02, 0.000, 0.000, 0.000, 02:42:17.615
219, 30045.62, 8212.90, -187500.02, -187500.02, -187500.02, -187500.02, -187500.02, -187500.02, 0.000, 0.000, 0.000, 02:42:17.615
220, 30041.44, 8213.21, -187500.02, -187500.02, -187500.02, -187500.02, -187500.02, -187500.02, 0.000, 0.000, 0.000, 02:42:17.616
221, 30029.32, 8202.00, -187500.02, -187500.02, -187500.02, -187500.02, -187500.02, -187500.02, 0.000, 0.000, 0.000, 02:42:17.616
222, 30031.15, 8199.49, -187500.02, -187500.02, -187500.02, -187500.02, -187500.02, -187500.02, 0.000, 0.000, 0.000, 02:42:17.616
223, 30042.00, 8210.38, -187500.02, -187500.02, -187500.02, -187500.02, -187500.02, -187500.02, 0.000, 0.000, 0.000, 02:42:17.616
224, 30036.47, 8222.29, -187500.02, -187500.02, -187500.02, -187500.02, -187500.02, -187500.02, 0.194, 1.002, -0.096, 02:42:17.616
225, 30035.24, 8195.83, -187500.02, -187500.02, -187500.02, -187500.02, -187500.02, -187500.02, 0.000, 0.000, 0.000, 02:42:17.616
226, 30032.21, 8192.92, -187500.02, -187500.02, -187500.02, -187500.02, -187500.02, -187500.02, 0.000, 0.000, 0.000, 02:42:17.616
227, 30050.04, 8207.85, -187500.02, -187500.02, -187500.02, -187500.02, -187500.02, -187500.02, 0.000, 0.000, 0.000, 02:42:18.080
228, 30048.21, 8213.46, -187500.02, -187500.02, -187500.02, -187500.02, -187500.02, -187500.02, 0.000, 0.000, 0.000, 02:42:18.081
229, 30042.89, 8205.91, -187500.02, -187500.02, -187500.02, -187500.02, -187500.02, -187500.02, 0.000, 0.000, 0.000, 02:42:18.081
230, 30023.89, 8201.82, -187500.02, -187500.02, -187500.02, -187500.02, -187500.02, -187500.02, 0.000, 0.000, 0.000, 02:42:18.081
231, 30040.12, 8215.12, -187500.02, -187500.02, -187500.02, -187500.02, -187500.02, -187500.02, 0.000, 0.000, 0.000, 02:42:18.081
232, 30044.37, 8219.65, -187500.02, -187500.02, -187500.02, -187500.02, -187500.02, -187500.02, 0.000, 0.000, 0.000, 02:42:18.081
233, 30049.77, 8206.49, -187500.02, -187500.02, -187500.02, -187500.02, -187500.02, -187500.02, 0.000, 0.000, 0.000, 02:42:18.081
234, 30039.02, 8197.48, -187500.02, -187500.02, -187500.02, -187500.02, -187500.02, -187500.02, 0.196, 1.000, -0.090, 02:42:18.081
235, 30054.47, 8191.15, -187500.02, -187500.02, -187500.02, -187500.02, -187500.02, -187500.02, 0.000, 0.000, 0.000, 02:42:18.081
236, 30054.96, 8224.35, -187500.02, -187500.02, -187500.02, -187500.02, -187500.02, -187500.02, 0.000, 0.000, 0.000, 02:42:18.082
237, 30042.76, 8204.97, -187500.02, -187500.02, -187500.02, -187500.02, -187500.02, -187500.02, 0.000, 0.000, 0.000, 02:42:18.082
238, 30033.79, 8182.93, -187500.02, -187500.02, -187500.02, -187500.02, -187500.02, -187500.02, 0.000, 0.000, 0.000, 02:42:18.082
239, 30047.36, 8183.17, -187500.02, -187500.02, -187500.02, -187500.02, -187500.02, -187500.02, 0.000, 0.000, 0.000, 02:42:18.082
240, 30054.15, 8201.48, -187500.02, -187500.02, -187500.02, -187500.02, -187500.02, -187500.02, 0.000, 0.000, 0.000, 02:42:18.082
241, 30043.47, 8224.26, -187500.02, -187500.02, -187500.02, -187500.02, -187500.02, -187500.02, 0.000, 0.000, 0.000, 02:42:18.082
242, 30020.52, 8222.00, -187500.02, -187500.02, -187500.02, -187500.02, -187500.02, -187500.02, 0.000, 0.000, 0.000, 02:42:18.082
243, 30029.01, 8218.71, -187500.02, -187500.02, -187500.02, -187500.02, -187500.02, -187500.02, 0.000, 0.000, 0.000, 02:42:18.082
244, 30048.19, 8201.66, -187500.02, -187500.02, -187500.02, -187500.02, -187500.02, -187500.02, 0.194, 0.996, -0.086, 02:42:18.083
245, 30045.21, 8200.65, -187500.02, -187500.02, -187500.02, -187500.02, -187500.02, -187500.02, 0.000, 0.000, 0.000, 02:42:18.083
246, 30022.04, 8199.16, -187500.02, -187500.02, -187500.02, -187500.02, -187500.02, -187500.02, 0.000, 0.000, 0.000, 02:42:18.083
247, 30011.87, 8202.60, -187500.02, -187500.02, -187500.02, -187500.02, -187500.02, -187500.02, 0.000, 0.000, 0.000, 02:42:18.083
248, 30039.42, 8187.31, -187500.02, -187500.02, -187500.02, -187500.02, -187500.02, -187500.02, 0.000, 0.000, 0.000, 02:42:18.083
249, 30047.63, 8209.55, -187500.02, -187500.02, -187500.02, -187500.02, -187500.02, -187500.02, 0.000, 0.000, 0.000, 02:42:18.083
250, 30023.15, 8206.55, -187500.02, -187500.02, -187500.02, -187500.02, -187500.02, -187500.02, 0.000, 0.000, 0.000, 02:42:18.083
251, 30027.09, 8197.03, -187500.02, -187500.02, -187500.02, -187500.02, -187500.02, -187500.02, 0.000, 0.000, 0.000, 02:42:18.084
252, 30057.69, 8212.77, -187500.02, -187500.02, -187500.02, -187500.02, -187500.02, -187500.02, 0.000, 0.000, 0.000, 02:42:18.084
253, 30061.75, 8193.21, -187500.02, -187500.02, -187500.02, -187500.02, -187500.02, -187500.02, 0.196, 1.000, -0.086, 02:42:18.084
254, 30030.55, 8184.74, -187500.02, -187500.02, -187500.02, -187500.02, -187500.02, -187500.02, 0.000, 0.000, 0.000, 02:42:18.084
255, 30020.63, 8188.20, -187500.02, -187500.02, -187500.02, -187500.02, -187500.02, -187500.02, 0.000, 0.000, 0.000, 02:42:18.085
0, 30045.53, 8192.52, -187500.02, -187500.02, -187500.02, -187500.02, -187500.02, -187500.02, 0.000, 0.000, 0.000, 02:42:18.085
1, 30037.75, 8208.34, -187500.02, -187500.02, -187500.02, -187500.02, -187500.02, -187500.02, 0.000, 0.000, 0.000, 02:42:18.085
2, 30031.13, 8199.45, -187500.02, -187500.02, -187500.02, -187500.02, -187500.02, -187500.02, 0.000, 0.000, 0.000, 02:42:18.085
3, 30031.15, 8175.80, -187500.02, -187500.02, -187500.02, -187500.02, -187500.02, -187500.02, 0.000, 0.000, 0.000, 02:42:18.085
4, 30049.08, 8194.24, -187500.02, -187500.02, -187500.02, -187500.02, -187500.02, -187500.02, 0.000, 0.000, 0.000, 02:42:18.085
5, 30057.08, 8209.06, -187500.02, -187500.02, -187500.02, -187500.02, -187500.02, -187500.02, 0.000, 0.000, 0.000, 02:42:18.085
6, 30047.18, 8207.16, -187500.02, -187500.02, -187500.02, -187500.02, -187500.02, -187500.02, 0.000, 0.000, 0.000, 02:42:18.086
7, 30027.56, 8184.85, -187500.02, -187500.02, -187500.02, -187500.02, -187500.02, -187500.02, 0.200, 0.996, -0.088, 02:42:18.086
8, 30029.23, 8197.01, -187500.02, -187500.02, -187500.02, -187500.02, -187500.02, -187500.02, 0.000, 0.000, 0.000, 02:42:18.086
9, 30039.83, 8183.20, -187500.02, -187500.02, -187500.02, -187500.02, -187500.02, -187500.02, 0.000, 0.000, 0.000, 02:42:18.086
10, 30040.92, 8189.66, -187500.02, -187500.02, -187500.02, -187500.02, -187500.02, -187500.02, 0.000, 0.000, 0.000, 02:42:18.087
11, 30025.72, 8195.92, -187500.02, -187500.02, -187500.02, -187500.02, -187500.02, -187500.02, 0.000, 0.000, 0.000, 02:42:18.087
12, 30042.04, 8178.08, -187500.02, -187500.02, -187500.02, -187500.02, -187500.02, -187500.02, 0.000, 0.000, 0.000, 02:42:18.087
13, 30050.80, 8207.69, -187500.02, -187500.02, -187500.02, -187500.02, -187500.02, -187500.02, 0.000, 0.000, 0.000, 02:42:18.087
14, 30026.60, 8223.97, -187500.02, -187500.02, -187500.02, -187500.02, -187500.02, -187500.02, 0.000, 0.000, 0.000, 02:42:18.087
15, 30007.17, 8206.15, -187500.02, -187500.02, -187500.02, -187500.02, -187500.02, -187500.02, 0.000, 0.000, 0.000, 02:42:18.087
16, 30025.16, 8189.52, -187500.02, -187500.02, -187500.02, -187500.02, -187500.02, -187500.02, 0.000, 0.000, 0.000, 02:42:18.088
17, 30064.06, 8182.03, -187500.02, -187500.02, -187500.02, -187500.02, -187500.02, -187500.02, 0.200, 0.994, -0.086, 02:42:18.088
18, 30067.23, 8209.97, -187500.02, -187500.02, -187500.02, -187500.02, -187500.02, -187500.02, 0.000, 0.000, 0.000, 02:42:18.088
19, 30034.46, 8222.67, -187500.02, -187500.02, -187500.02, -187500.02, -187500.02, -187500.02, 0.000, 0.000, 0.000, 02:42:18.088
20, 30026.91, 8170.14, -187500.02, -187500.02, -187500.02, -187500.02, -187500.02, -187500.02, 0.000, 0.000, 0.000, 02:42:18.088
21, 30045.39, 8200.50, -187500.02, -187500.02, -187500.02, -187500.02, -187500.02, -187500.02, 0.000, 0.000, 0.000, 02:42:18.089
22, 30050.49, 8215.63, -187500.02, -187500.02, -187500.02, -187500.02, -187500.02, -187500.02, 0.000, 0.000, 0.000, 02:42:18.089
23, 30019.17, 8205.35, -187500.02, -187500.02, -187500.02, -187500.02, -187500.02, -187500.02, 0.000, 0.000, 0.000, 02:42:18.089
24, 30015.44, 8174.90, -187500.02, -187500.02, -187500.02, -187500.02, -187500.02, -187500.02, 0.000, 0.000, 0.000, 02:42:18.089
25, 30043.11, 8187.76, -187500.02, -187500.02, -187500.02, -187500.02, -187500.02, -187500.02, 0.000, 0.000, 0.000, 02:42:18.089
26, 30032.94, 8226.58, -187500.02, -187500.02, -187500.02, -187500.02, -187500.02, -187500.02, 0.000, 0.000, 0.000, 02:42:18.089
27, 30023.22, 8207.81, -187500.02, -187500.02, -187500.02, -187500.02, -187500.02, -187500.02, 0.202, 0.998, -0.088, 02:42:18.089
28, 30021.81, 8169.45, -187500.02, -187500.02, -187500.02, -187500.02, -187500.02, -187500.02, 0.000, 0.000, 0.000, 02:42:18.090
29, 30053.17, 8152.82, -187500.02, -187500.02, -187500.02, -187500.02, -187500.02, -187500.02, 0.000, 0.000, 0.000, 02:42:18.090
30, 30047.74, 8182.41, -187500.02, -187500.02, -187500.02, -187500.02, -187500.02, -187500.02, 0.000, 0.000, 0.000, 02:42:18.090
31, 30043.00, 8182.44, -187500.02, -187500.02, -187500.02, -187500.02, -187500.02, -187500.02, 0.000, 0.000, 0.000, 02:42:18.090
32, 30038.75, 8171.08, -187500.02, -187500.02, -187500.02, -187500.02, -187500.02, -187500.02, 0.000, 0.000, 0.000, 02:42:18.090
33, 30041.97, 8197.23, -187500.02, -187500.02, -187500.02, -187500.02, -187500.02, -187500.02, 0.000, 0.000, 0.000, 02:42:18.090
34, 30047.27, 8210.33, -187500.02, -187500.02, -187500.02, -187500.02, -187500.02, -187500.02, 0.000, 0.000, 0.000, 02:42:18.090
35, 30043.67, 8215.47, -187500.02, -187500.02, -187500.02, -187500.02, -187500.02, -187500.02, 0.000, 0.000, 0.000, 02:42:18.091
36, 30027.36, 8202.55, -187500.02, -187500.02, -187500.02, -187500.02, -187500.02, -187500.02, 0.000, 0.000, 0.000, 02:42:18.091
37, 30028.09, 8193.12, -187500.02, -187500.02, -187500.02, -187500.02, -187500.02, -187500.02, 0.206, 0.996, -0.086, 02:42:18.091
38, 30052.14, 8198.49, -187500.02, -187500.02, -187500.02, -187500.02, -187500.02, -187500.02, 0.000, 0.000, 0.000, 02:42:18.091
39, 30053.86, 8207.36, -187500.02, -187500.02, -187500.02, -187500.02, -187500.02, -187500.02, 0.000, 0.000, 0.000, 02:42:18.091
40, 30025.97, 8200.25, -187500.02, -187500.02, -187500.02, -187500.02, -187500.02, -187500.02, 0.000, 0.000, 0.000, 02:42:18.091
41, 30031.67, 8169.58, -187500.02, -187500.02, -187500.02, -187500.02, -187500.02, -187500.02, 0.000, 0.000, 0.000, 02:42:18.091
42, 30047.61, 8201.06, -187500.02, -187500.02, -187500.02, -187500.02, -187500.02, -187500.02, 0.000, 0.000, 0.000, 02:42:18.092
43, 30052.66, 8189.92, -187500.02, -187500.02, -187500.02, -187500.02, -187500.02, -187500.02, 0.000, 0.000, 0.000, 02:42:18.092
44, 30030.37, 8168.58, -187500.02, -187500.02, -187500.02, -187500.02, -187500.02, -187500.02, 0.000, 0.000, 0.000, 02:42:18.092
45, 30026.80, 8157.85, -187500.02, -187500.02, -187500.02, -187500.02, -187500.02, -187500.02, 0.000, 0.000, 0.000, 02:42:18.092
46, 30053.57, 8191.47, -187500.02, -187500.02, -187500.02, -187500.02, -187500.02, -187500.02, 0.000, 0.000, 0.000, 02:42:18.092
47, 30048.75, 8210.98, -187500.02, -187500.02, -187500.02, -187500.02, -187500.02, -187500.02, 0.206, 0.998, -0.084, 02:42:18.092
48, 30049.42, 8182.97, -187500.02, -187500.02, -187500.02, -187500.02, -187500.02, -187500.02, 0.000, 0.000, 0.000, 02:42:18.092
49, 30026.42, 8192.56, -187500.02, -187500.02, -187500.02, -187500.02, -187500.02, -187500.02, 0.000, 0.000, 0.000, 02:42:18.093
50, 30052.21, 8179.24, -187500.02, -187500.02, -187500.02, -187500.02, -187500.02, -187500.02, 0.000, 0.000, 0.000, 02:42:18.093
51, 30057.91, 8184.81, -187500.02, -187500.02, -187500.02, -187500.02, -187500.02, -187500.02, 0.000, 0.000, 0.000, 02:42:18.093
52, 30042.64, 8200.72, -187500.02, -187500.02, -187500.02, -187500.02, -187500.02, -187500.02, 0.000, 0.000, 0.000, 02:42:18.093
53, 30017.92, 8181.21, -187500.02, -187500.02, -187500.02, -187500.02, -187500.02, -187500.02, 0.000, 0.000, 0.000, 02:42:18.093
54, 30028.34, 8168.98, -187500.02, -187500.02, -187500.02, -187500.02, -187500.02, -187500.02, 0.000, 0.000, 0.000, 02:42:18.093
55, 30038.15, 8193.99, -187500.02, -187500.02, -187500.02, -187500.02, -187500.02, -187500.02, 0.000, 0.000, 0.000, 02:42:18.093
56, 30030.80, 8193.43, -187500.02, -187500.02, -187500.02, -187500.02, -187500.02, -187500.02, 0.206, 0.994, -0.090, 02:42:18.093
57, 30009.27, 8181.10, -187500.02, -187500.02, -187500.02, -187500.02, -187500.02, -187500.02, 0.000, 0.000, 0.000, 02:42:18.094
58, 30033.17, 8191.56, -187500.02, -187500.02, -187500.02, -187500.02, -187500.02, -187500.02, 0.000, 0.000, 0.000, 02:42:18.094
59, 30050.00, 8186.95, -187500.02, -187500.02, -187500.02, -187500.02, -187500.02, -187500.02, 0.000, 0.000, 0.000, 02:42:18.094
60, 30042.89, 8183.44, -187500.02, -187500.02, -187500.02, -187500.02, -187500.02, -187500.02, 0.000, 0.000, 0.000, 02:42:18.094
61, 30015.55, 8170.81, -187500.02, -187500.02, -187500.02, -187500.02, -187500.02, -187500.02, 0.000, 0.000, 0.000, 02:42:18.094
62, 30028.05, 8170.23, -187500.02, -187500.02, -187500.02, -187500.02, -187500.02, -187500.02, 0.000, 0.000, 0.000, 02:42:18.094
63, 30043.83, 8192.29, -187500.02, -187500.02, -187500.02, -187500.02, -187500.02, -187500.02, 0.000, 0.000, 0.000, 02:42:18.094
64, 30034.13, 8208.34, -187500.02, -187500.02, -187500.02, -187500.02, -187500.02, -187500.02, 0.000, 0.000, 0.000, 02:42:18.094
65, 30009.74, 8190.71, -187500.02, -187500.02, -187500.02, -187500.02, -187500.02, -187500.02, 0.000, 0.000, 0.000, 02:42:18.095
66, 30011.46, 8155.10, -187500.02, -187500.02, -187500.02, -187500.02, -187500.02, -187500.02, 0.204, 0.992, -0.084, 02:42:18.095
67, 30041.82, 8146.23, -187500.02, -187500.02, -187500.02, -187500.02, -187500.02, -187500.02, 0.000, 0.000, 0.000, 02:42:18.095
68, 30034.40, 8177.47, -187500.02, -187500.02, -187500.02, -187500.02, -187500.02, -187500.02, 0.000, 0.000, 0.000, 02:42:18.095
69, 30011.71, 8196.03, -187500.02, -187500.02, -187500.02, -187500.02, -187500.02, -187500.02, 0.000, 0.000, 0.000, 02:42:18.095
70, 30002.57, 8175.53, -187500.02, -187500.02, -187500.02, -187500.02, -187500.02, -187500.02, 0.000, 0.000, 0.000, 02:42:18.095
71, 30021.12, 8163.62, -187500.02, -187500.02, -187500.02, -187500.02, -187500.02, -187500.02, 0.000, 0.000, 0.000, 02:42:18.095
72, 30027.13, 8138.05, -187500.02, -187500.02, -187500.02, -187500.02, -187500.02, -187500.02, 0.000, 0.000, 0.000, 02:42:18.096
73, 30020.81, 8169.29, -187500.02, -187500.02, -187500.02, -187500.02, -187500.02, -187500.02, 0.000, 0.000, 0.000, 02:42:18.096
74, 30005.72, 8194.24, -187500.02, -187500.02, -187500.02, -187500.02, -187500.02, -187500.02, 0.000, 0.000, 0.000, 02:42:18.096
75, 30028.38, 8207.74, -187500.02, -187500.02, -187500.02, -187500.02, -187500.02, -187500.02, 0.000, 0.000, 0.000, 02:42:18.096
76, 30037.84, 8207.99, -187500.02, -187500.02, -187500.02, -187500.02, -187500.02, -187500.02, 0.196, 0.994, -0.092, 02:42:18.096
77, 30039.29, 8177.97, -187500.02, -187500.02, -187500.02, -187500.02, -187500.02, -187500.02, 0.000, 0.000, 0.000, 02:42:18.096
78, 30017.72, 8167.64, -187500.02, -187500.02, -187500.02, -187500.02, -187500.02, -187500.02, 0.000, 0.000, 0.000, 02:42:18.096
79, 30020.94, 8191.31, -187500.02, -187500.02, -187500.02, -187500.02, -187500.02, -187500.02, 0.000, 0.000, 0.000, 02:42:18.096
80, 30034.96, 8180.20, -187500.02, -187500.02, -187500.02, -187500.02, -187500.02, -187500.02, 0.000, 0.000, 0.000, 02:42:18.096
81, 30020.98, 8173.56, -187500.02, -187500.02, -187500.02, -187500.02, -187500.02, -187500.02, 0.000, 0.000, 0.000, 02:42:18.097
82, 30004.20, 8163.10, -187500.02, -187500.02, -187500.02, -187500.02, -187500.02, -187500.02, 0.000, 0.000, 0.000, 02:42:18.097
83, 30018.01, 8143.25, -187500.02, -187500.02, -187500.02, -187500.02, -187500.02, -187500.02, 0.000, 0.000, 0.000, 02:42:18.097
84, 30036.01, 8152.89, -187500.02, -187500.02, -187500.02, -187500.02, -187500.02, -187500.02, 0.000, 0.000, 0.000, 02:42:18.097
85, 30028.72, 8173.94, -187500.02, -187500.02, -187500.02, -187500.02, -187500.02, -187500.02, 0.000, 0.000, 0.000, 02:42:18.097
86, 30013.14, 8169.32, -187500.02, -187500.02, -187500.02, -187500.02, -187500.02, -187500.02, 0.194, 0.994, -0.090, 02:42:18.097
87, 30026.42, 8158.83, -187500.02, -187500.02, -187500.02, -187500.02, -187500.02, -187500.02, 0.000, 0.000, 0.000, 02:42:18.097
88, 30047.20, 8174.61, -187500.02, -187500.02, -187500.02, -187500.02, -187500.02, -187500.02, 0.000, 0.000, 0.000, 02:42:18.097
89, 30039.31, 8168.85, -187500.02, -187500.02, -187500.02, -187500.02, -187500.02, -187500.02, 0.000, 0.000, 0.000, 02:42:18.097
90, 30020.31, 8160.13, -187500.02, -187500.02, -187500.02, -187500.02, -187500.02, -187500.02, 0.000, 0.000, 0.000, 02:42:18.097
91, 30021.16, 8147.32, -187500.02, -187500.02, -187500.02, -187500.02, -187500.02, -187500.02, 0.000, 0.000, 0.000, 02:42:18.561
92, 30041.03, 8168.74, -187500.02, -187500.02, -187500.02, -187500.02, -187500.02, -187500.02, 0.000, 0.000, 0.000, 02:42:18.561
93, 30023.82, 8177.90, -187500.02, -187500.02, -187500.02, -187500.02, -187500.02, -187500.02, 0.000, 0.000, 0.000, 02:42:18.561
94, 30014.10, 8159.33, -187500.02, -187500.02, -187500.02, -187500.02, -187500.02, -187500.02, 0.000, 0.000, 0.000, 02:42:18.561
95, 30016.47, 8157.16, -187500.02, -187500.02, -187500.02, -187500.02, -187500.02, -187500.02, 0.000, 0.000, 0.000, 02:42:18.561
96, 30033.14, 8175.15, -187500.02, -187500.02, -187500.02, -187500.02, -187500.02, -187500.02, 0.196, 0.994, -0.094, 02:42:18.561
97, 30031.31, 8182.01, -187500.02, -187500.02, -187500.02, -187500.02, -187500.02, -187500.02, 0.000, 0.000, 0.000, 02:42:18.561
98, 30014.62, 8200.14, -187500.02, -187500.02, -187500.02, -187500.02, -187500.02, -187500.02, 0.000, 0.000, 0.000, 02:42:18.562
99, 30033.84, 8149.13, -187500.02, -187500.02, -187500.02, -187500.02, -187500.02, -187500.02, 0.000, 0.000, 0.000, 02:42:18.562
100, 30073.04, 8153.87, -187500.02, -187500.02, -187500.02, -187500.02, -187500.02, -187500.02, 0.000, 0.000, 0.000, 02:42:18.562
101, 30076.84, 8182.77, -187500.02, -187500.02, -187500.02, -187500.02, -187500.02, -187500.02, 0.000, 0.000, 0.000, 02:42:18.562
102, 30051.72, 8190.30, -187500.02, -187500.02, -187500.02, -187500.02, -187500.02, -187500.02, 0.000, 0.000, 0.000, 02:42:18.562
103, 30019.82, 8156.35, -187500.02, -187500.02, -187500.02, -187500.02, -187500.02, -187500.02, 0.000, 0.000, 0.000, 02:42:18.562
104, 30043.22, 8159.41, -187500.02, -187500.02, -187500.02, -187500.02, -187500.02, -187500.02, 0.000, 0.000, 0.000, 02:42:18.562
105, 30059.47, 8171.77, -187500.02, -187500.02, -187500.02, -187500.02, -187500.02, -187500.02, 0.000, 0.000, 0.000, 02:42:18.562
106, 30040.65, 8161.58, -187500.02, -187500.02, -187500.02, -187500.02, -187500.02, -187500.02, 0.198, 0.996, -0.092, 02:42:18.562
107, 30019.96, 8166.39, -187500.02, -187500.02, -187500.02, -187500.02, -187500.02, -187500.02, 0.000, 0.000, 0.000, 02:42:18.563
108, 30033.55, 8162.83, -187500.02, -187500.02, -187500.02, -187500.02, -187500.02, -187500.02, 0.000, 0.000, 0.000, 02:42:18.563
109, 30049.55, 8164.06, -187500.02, -187500.02, -187500.02, -187500.02, -187500.02, -187500.02, 0.000, 0.000, 0.000, 02:42:18.563
110, 30040.95, 8167.24, -187500.02, -187500.02, -187500.02, -187500.02, -187500.02, -187500.02, 0.000, 0.000, 0.000, 02:42:18.563
111, 30025.07, 8144.77, -187500.02, -187500.02, -187500.02, -187500.02, -187500.02, -187500.02, 0.000, 0.000, 0.000, 02:42:18.563
112, 30022.08, 8156.31, -187500.02, -187500.02, -187500.02, -187500.02, -187500.02, -187500.02, 0.000, 0.000, 0.000, 02:42:18.563
113, 30038.20, 8172.27, -187500.02, -187500.02, -187500.02, -187500.02, -187500.02, -187500.02, 0.000, 0.000, 0.000, 02:42:18.563
114, 30030.98, 8170.59, -187500.02, -187500.02, -187500.02, -187500.02, -187500.02, -187500.02, 0.000, 0.000, 0.000, 02:42:18.563
115, 30017.01, 8165.56, -187500.02, -187500.02, -187500.02, -187500.02, -187500.02, -187500.02, 0.000, 0.000, 0.000, 02:42:18.563
116, 30020.00, 8133.60, -187500.02, -187500.02, -187500.02, -187500.02, -187500.02, -187500.02, 0.198, 0.994, -0.094, 02:42:18.564
117, 30050.11, 8152.93, -187500.02, -187500.02, -187500.02, -187500.02, -187500.02, -187500.02, 0.000, 0.000, 0.000, 02:42:18.564
118, 30038.33, 8172.56, -187500.02, -187500.02, -187500.02, -187500.02, -187500.02, -187500.02, 0.000, 0.000, 0.000, 02:42:18.564
119, 30024.40, 8152.55, -187500.02, -187500.02, -187500.02, -187500.02, -187500.02, -187500.02, 0.000, 0.000, 0.000, 02:42:18.564
120, 30011.57, 8144.42, -187500.02, -187500.02, -187500.02, -187500.02, -187500.02, -187500.02, 0.000, 0.000, 0.000, 02:42:18.564
121, 30041.19, 8155.06, -187500.02, -187500.02, -187500.02, -187500.02, -187500.02, -187500.02, 0.000, 0.000, 0.000, 02:42:18.564
122, 30041.23, 8162.68, -187500.02, -187500.02, -187500.02, -187500.02, -187500.02, -187500.02, 0.000, 0.000, 0.000, 02:42:18.564
123, 30020.02, 8148.19, -187500.02, -187500.02, -187500.02, -187500.02, -187500.02, -187500.02, 0.000, 0.000, 0.000, 02:42:18.564
124, 29998.37, 8137.82, -187500.02, -187500.02, -187500.02, -187500.02, -187500.02, -187500.02, 0.000, 0.000, 0.000, 02:42:18.564
125, 30029.90, 8153.31, -187500.02, -187500.02, -187500.02, -187500.02, -187500.02, -187500.02, 0.198, 0.994, -0.094, 02:42:18.565
126, 30052.54, 8143.81, -187500.02, -187500.02, -187500.02, -187500.02, -187500.02, -187500.02, 0.000, 0.000, 0.000, 02:42:18.565
127, 30038.44, 8157.18, -187500.02, -187500.02, -187500.02, -187500.02, -187500.02, -187500.02, 0.000, 0.000, 0.000, 02:42:18.565
128, 30020.11, 8166.75, -187500.02, -187500.02, -187500.02, -187500.02, -187500.02, -187500.02, 0.000, 0.000, 0.000, 02:42:18.565
129, 30027.80, 8170.12, -187500.02, -187500.02, -187500.02, -187500.02, -187500.02, -187500.02, 0.000, 0.000, 0.000, 02:42:18.565
130, 30045.35, 8179.26, -187500.02, -187500.02, -187500.02, -187500.02, -187500.02, -187500.02, 0.000, 0.000, 0.000, 02:42:18.565
131, 30043.61, 8160.08, -187500.02, -187500.02, -187500.02, -187500.02, -187500.02, -187500.02, 0.000, 0.000, 0.000, 02:42:18.565
132, 30014.55, 8166.52, -187500.02, -187500.02, -187500.02, -187500.02, -187500.02, -187500.02, 0.000, 0.000, 0.000, 02:42:18.565
133, 30018.53, 8153.94, -187500.02, -187500.02, -187500.02, -187500.02, -187500.02, -187500.02, 0.000, 0.000, 0.000, 02:42:18.566
134, 30041.37, 8145.22, -187500.02, -187500.02, -187500.02, -187500.02, -187500.02, -187500.02, 0.000, 0.000, 0.000, 02:42:18.566
135, 30052.43, 8145.40, -187500.02, -187500.02, -187500.02, -187500.02, -187500.02, -187500.02, 0.202, 0.996, -0.090, 02:42:18.566
136, 30017.86, 8176.65, -187500.02, -187500.02, -187500.02, -187500.02, -187500.02, -187500.02, 0.000, 0.000, 0.000, 02:42:18.566
137, 30027.85, 8159.91, -187500.02, -187500.02, -187500.02, -187500.02, -187500.02, -187500.02, 0.000, 0.000, 0.000, 02:42:18.566
138, 30053.75, 8174.95, -187500.02, -187500.02, -187500.02, -187500.02, -187500.02, -187500.02, 0.000, 0.000, 0.000, 02:42:18.566
139, 30048.97, 8179.75, -187500.02, -187500.02, -187500.02, -187500.02, -187500.02, -187500.02, 0.000, 0.000, 0.000, 02:42:18.566
140, 30031.94, 8150.97, -187500.02, -187500.02, -187500.02, -187500.02, -187500.02, -187500.02, 0.000, 0.000, 0.000, 02:42:18.566
141, 30035.00, 8167.10, -187500.02, -187500.02, -187500.02, -187500.02, -187500.02, -187500.02, 0.000, 0.000, 0.000, 02:42:18.566
142, 30059.36, 8200.03, -187500.02, -187500.02, -187500.02, -187500.02, -187500.02, -187500.02, 0.000, 0.000, 0.000, 02:42:18.566
143, 30059.59, 8212.99, -187500.02, -187500.02, -187500.02, -187500.02, -187500.02, -187500.02, 0.000, 0.000, 0.000, 02:42:18.567
144, 30059.23, 8197.35, -187500.02, -187500.02, -187500.02, -187500.02, -187500.02, -187500.02, 0.000, 0.000, 0.000, 02:42:18.567
145, 30044.59, 8180.51, -187500.02, -187500.02, -187500.02, -187500.02, -187500.02, -187500.02, 0.204, 0.996, -0.098, 02:42:18.567
146, 30075.68, 8169.94, -187500.02, -187500.02, -187500.02, -187500.02, -187500.02, -187500.02, 0.000, 0.000, 0.000, 02:42:18.567
147, 30079.75, 8192.56, -187500.02, -187500.02, -187500.02, -187500.02, -187500.02, -187500.02, 0.000, 0.000, 0.000, 02:42:18.567
148, 30065.24, 8238.25, -187500.02, -187500.02, -187500.02, -187500.02, -187500.02, -187500.02, 0.000, 0.000, 0.000, 02:42:18.567
149, 30050.22, 8205.17, -187500.02, -187500.02, -187500.02, -187500.02, -187500.02, -187500.02, 0.000, 0.000, 0.000, 02:42:18.567
150, 30067.59, 8215.41, -187500.02, -187500.02, -187500.02, -187500.02, -187500.02, -187500.02, 0.000, 0.000, 0.000, 02:42:18.567
151, 30070.20, 8222.22, -187500.02, -187500.02, -187500.02, -187500.02, -187500.02, -187500.02, 0.000, 0.000, 0.000, 02:42:18.567
152, 30056.93, 8233.51, -187500.02, -187500.02, -187500.02, -187500.02, -187500.02, -187500.02, 0.000, 0.000, 0.000, 02:42:18.567
153, 30047.72, 8186.73, -187500.02, -187500.02, -187500.02, -187500.02, -187500.02, -187500.02, 0.000, 0.000, 0.000, 02:42:18.568
154, 30061.20, 8178.93, -187500.02, -187500.02, -187500.02, -187500.02, -187500.02, -187500.02, 0.000, 0.000, 0.000, 02:42:18.568
155, 30073.24, 8216.61, -187500.02, -187500.02, -187500.02, -187500.02, -187500.02, -187500.02, 0.200, 0.990, -0.092, 02:42:18.568
156, 30060.10, 8229.17, -187500.02, -187500.02, -187500.02, -187500.02, -187500.02, -187500.02, 0.000, 0.000, 0.000, 02:42:18.568
157, 30032.05, 8209.97, -187500.02, -187500.02, -187500.02, -187500.02, -187500.02, -187500.02, 0.000, 0.000, 0.000, 02:42:18.568
158, 30035.83, 8198.82, -187500.02, -187500.02, -187500.02, -187500.02, -187500.02, -187500.02, 0.000, 0.000, 0.000, 02:42:18.568
159, 30072.06, 8184.18, -187500.02, -187500.02, -187500.02, -187500.02, -187500.02, -187500.02, 0.000, 0.000, 0.000, 02:42:18.568
160, 30065.29, 8219.18, -187500.02, -187500.02, -187500.02, -187500.02, -187500.02, -187500.02, 0.000, 0.000, 0.000, 02:42:18.568
161, 30052.54, 8206.46, -187500.02, -187500.02, -187500.02, -187500.02, -187500.02, -187500.02, 0.000, 0.000, 0.000, 02:42:18.568
162, 30049.44, 8201.39, -187500.02, -187500.02, -187500.02, -187500.02, -187500.02, -187500.02, 0.000, 0.000, 0.000, 02:42:18.569
163, 30057.35, 8233.33, -187500.02, -187500.02, -187500.02, -187500.02, -187500.02, -187500.02, 0.000, 0.000, 0.000, 02:42:18.569
164, 30068.57, 8222.31, -187500.02, -187500.02, -187500.02, -187500.02, -187500.02, -187500.02, 0.000, 0.000, 0.000, 02:42:18.569
165, 30050.42, 8222.11, -187500.02, -187500.02, -187500.02, -187500.02, -187500.02, -187500.02, 0.202, 0.996, -0.090, 02:42:18.569
166, 30042.55, 8205.10, -187500.02, -187500.02, -187500.02, -187500.02, -187500.02, -187500.02, 0.000, 0.000, 0.000, 02:42:18.569
167, 30067.90, 8200.59, -187500.02, -187500.02, -187500.02, -187500.02, -187500.02, -187500.02, 0.000, 0.000, 0.000, 02:42:18.569
168, 30065.04, 8215.47, -187500.02, -187500.02, -187500.02, -187500.02, -187500.02, -187500.02, 0.000, 0.000, 0.000, 02:42:18.570
169, 30052.39, 8229.62, -187500.02, -187500.02, -187500.02, -187500.02, -187500.02, -187500.02, 0.000, 0.000, 0.000, 02:42:18.570
170, 30038.38, 8222.42, -187500.02, -187500.02, -187500.02, -187500.02, -187500.02, -187500.02, 0.000, 0.000, 0.000, 02:42:18.570
171, 30055.74, 8214.87, -187500.02, -187500.02, -187500.02, -187500.02, -187500.02, -187500.02, 0.000, 0.000, 0.000, 02:42:18.570
172, 30072.84, 8214.71, -187500.02, -187500.02, -187500.02, -187500.02, -187500.02, -187500.02, 0.000, 0.000, 0.000, 02:42:18.570
173, 30059.81, 8222.60, -187500.02, -187500.02, -187500.02, -187500.02, -187500.02, -187500.02, 0.000, 0.000, 0.000, 02:42:18.570
174, 30036.18, 8231.68, -187500.02, -187500.02, -187500.02, -187500.02, -187500.02, -187500.02, 0.000, 0.000, 0.000, 02:42:18.570
175, 30046.89, 8227.41, -187500.02, -187500.02, -187500.02, -187500.02, -187500.02, -187500.02, 0.198, 0.994, -0.086, 02:42:18.571
176, 30064.73, 8231.83, -187500.02, -187500.02, -187500.02, -187500.02, -187500.02, -187500.02, 0.000, 0.000, 0.000, 02:42:18.571
177, 30051.79, 8236.01, -187500.02, -187500.02, -187500.02, -187500.02, -187500.02, -187500.02, 0.000, 0.000, 0.000, 02:42:18.571
178, 30034.46, 8222.65, -187500.02, -187500.02, -187500.02, -187500.02, -187500.02, -187500.02, 0.000, 0.000, 0.000, 02:42:18.571
179, 30055.54, 8236.04, -187500.02, -187500.02, -187500.02, -187500.02, -187500.02, -187500.02, 0.000, 0.000, 0.000, 02:42:18.571
180, 30088.42, 8246.07, -187500.02, -187500.02, -187500.02, -187500.02, -187500.02, -187500.02, 0.000, 0.000, 0.000, 02:42:18.571
181, 30092.64, 8216.84, -187500.02, -187500.02, -187500.02, -187500.02, -187500.02, -187500.02, 0.000, 0.000, 0.000, 02:42:18.572
182, 30077.80, 8200.68, -187500.02, -187500.02, -187500.02, -187500.02, -187500.02, -187500.02, 0.000, 0.000, 0.000, 02:42:18.572
183, 30065.51, 8203.40, -187500.02, -187500.02, -187500.02, -187500.02, -187500.02, -187500.02, 0.000, 0.000, 0.000, 02:42:18.572
184, 30071.32, 8231.48, -187500.02, -187500.02, -187500.02, -187500.02, -187500.02, -187500.02, 0.200, 0.996, -0.090, 02:42:18.572
185, 30073.80, 8236.71, -187500.02, -187500.02, -187500.02, -187500.02, -187500.02, -187500.02, 0.000, 0.000, 0.000, 02:42:18.572
186, 30055.29, 8223.07, -187500.02, -187500.02, -187500.02, -187500.02, -187500.02, -187500.02, 0.000, 0.000, 0.000, 02:42:18.572
187, 30061.96, 8182.71, -187500.02, -187500.02, -187500.02, -187500.02, -187500.02, -187500.02, 0.000, 0.000, 0.000, 02:42:18.572
188, 30073.91, 8225.40, -187500.02, -187500.02, -187500.02, -187500.02, -187500.02, -187500.02, 0.000, 0.000, 0.000, 02:42:18.572
189, 30065.98, 8250.16, -187500.02, -187500.02, -187500.02, -187500.02, -187500.02, -187500.02, 0.000, 0.000, 0.000, 02:42:18.573
190, 30047.43, 8233.58, -187500.02, -187500.02, -187500.02, -187500.02, -187500.02, -187500.02, 0.000, 0.000, 0.000, 02:42:18.573
191, 30038.15, 8211.99, -187500.02, -187500.02, -187500.02, -187500.02, -187500.02, -187500.02, 0.000, 0.000, 0.000, 02:42:18.573
192, 30067.10, 8225.35, -187500.02, -187500.02, -187500.02, -187500.02, -187500.02, -187500.02, 0.000, 0.000, 0.000, 02:42:18.573
193, 30062.49, 8242.29, -187500.02, -187500.02, -187500.02, -187500.02, -187500.02, -187500.02, 0.000, 0.000, 0.000, 02:42:18.573
194, 30047.34, 8217.01, -187500.02, -187500.02, -187500.02, -187500.02, -187500.02, -187500.02, 0.204, 0.998, -0.092, 02:42:18.573
195, 30039.02, 8202.42, -187500.02, -187500.02, -187500.02, -187500.02, -187500.02, -187500.02, 0.000, 0.000, 0.000, 02:42:18.573
196, 30057.17, 8200.25, -187500.02, -187500.02, -187500.02, -187500.02, -187500.02, -187500.02, 0.000, 0.000, 0.000, 02:42:18.573
197, 30052.50, 8245.00, -187500.02, -187500.02, -187500.02, -187500.02, -187500.02, -187500.02, 0.000, 0.000, 0.000, 02:42:18.574
198, 30040.65, 8221.66, -187500.02, -187500.02, -187500.02, -187500.02, -187500.02, -187500.02, 0.000, 0.000, 0.000, 02:42:18.574
199, 30025.90, 8173.50, -187500.02, -187500.02, -187500.02, -187500.02, -187500.02, -187500.02, 0.000, 0.000, 0.000, 02:42:18.574
200, 30044.21, 8221.26, -187500.02, -187500.02, -187500.02, -187500.02, -187500.02, -187500.02, 0.000, 0.000, 0.000, 02:42:18.574
201, 30034.08, 8259.84, -187500.02, -187500.02, -187500.02, -187500.02, -187500.02, -187500.02, 0.000, 0.000, 0.000, 02:42:18.574
202, 30029.57, 8227.97, -187500.02, -187500.02, -187500.02, -187500.02, -187500.02, -187500.02, 0.000, 0.000, 0.000, 02:42:18.574
203, 30035.69, 8223.27, -187500.02, -187500.02, -187500.02, -187500.02, -187500.02, -187500.02, 0.000, 0.000, 0.000, 02:42:18.574
204, 30055.63, 8199.33, -187500.02, -187500.02, -187500.02, -187500.02, -187500.02, -187500.02, 0.196, 1.000, -0.096, 02:42:18.575
205, 30074.70, 8196.61, -187500.02, -187500.02, -187500.02, -187500.02, -187500.02, -187500.02, 0.000, 0.000, 0.000, 02:42:18.575
206, 30060.95, 8232.33, -187500.02, -187500.02, -187500.02, -187500.02, -187500.02, -187500.02, 0.000, 0.000, 0.000, 02:42:18.575
207, 30029.17, 8223.34, -187500.02, -187500.02, -187500.02, -187500.02, -187500.02, -187500.02, 0.000, 0.000, 0.000, 02:42:18.575
208, 30020.92, 8211.92, -187500.02, -187500.02, -187500.02, -187500.02, -187500.02, -187500.02, 0.000, 0.000, 0.000, 02:42:18.575
209, 30047.47, 8183.60, -187500.02, -187500.02, -187500.02, -187500.02, -187500.02, -187500.02, 0.000, 0.000, 0.000, 02:42:18.575
210, 30041.12, 8223.30, -187500.02, -187500.02, -187500.02, -187500.02, -187500.02, -187500.02, 0.000, 0.000, 0.000, 02:42:18.576
211, 30031.09, 8230.38, -187500.02, -187500.02, -187500.02, -187500.02, -187500.02, -187500.02, 0.000, 0.000, 0.000, 02:42:19.041
212, 30026.88, 8199.76, -187500.02, -187500.02, -187500.02, -187500.02, -187500.02, -187500.02, 0.000, 0.000, 0.000, 02:42:19.041
213, 30053.55, 8199.16, -187500.02, -187500.02, -187500.02, -187500.02, -187500.02, -187500.02, 0.000, 0.000, 0.000, 02:42:19.041
214, 30059.72, 8208.50, -187500.02, -187500.02, -187500.02, -187500.02, -187500.02, -187500.02, 0.200, 0.998, -0.092, 02:42:19.041
215, 30040.68, 8238.00, -187500.02, -187500.02, -187500.02, -187500.02, -187500.02, -187500.02, 0.000, 0.000, 0.000, 02:42:19.041
216, 30049.73, 8219.92, -187500.02, -187500.02, -187500.02, -187500.02, -187500.02, -187500.02, 0.000, 0.000, 0.000, 02:42:19.041
217, 30057.20, 8221.33, -187500.02, -187500.02, -187500.02, -187500.02, -187500.02, -187500.02, 0.000, 0.000, 0.000, 02:42:19.042
218, 30047.92, 8235.99, -187500.02, -187500.02, -187500.02, -187500.02, -187500.02, -187500.02, 0.000, 0.000, 0.000, 02:42:19.042
219, 30043.63, 8206.73, -187500.02, -187500.02, -187500.02, -187500.02, -187500.02, -187500.02, 0.000, 0.000, 0.000, 02:42:19.042
220, 30025.12, 8220.05, -187500.02, -187500.02, -187500.02, -187500.02, -187500.02, -187500.02, 0.000, 0.000, 0.000, 02:42:19.042
221, 30059.03, 8193.12, -187500.02, -187500.02, -187500.02, -187500.02, -187500.02, -187500.02, 0.000, 0.000, 0.000, 02:42:19.042
222, 30068.97, 8192.63, -187500.02, -187500.02, -187500.02, -187500.02, -187500.02, -187500.02, 0.000, 0.000, 0.000, 02:42:19.042
223, 30051.20, 8223.54, -187500.02, -187500.02, -187500.02, -187500.02, -187500.02, -187500.02, 0.000, 0.000, 0.000, 02:42:19.042
224, 30033.68, 8209.30, -187500.02, -187500.02, -187500.02, -187500.02, -187500.02, -187500.02, 0.204, 0.998, -0.090, 02:42:19.043
225, 30052.97, 8189.72, -187500.02, -187500.02, -187500.02, -187500.02, -187500.02, -187500.02, 0.000, 0.000, 0.000, 02:42:19.043
226, 30063.30, 8204.81, -187500.02, -187500.02, -187500.02, -187500.02, -187500.02, -187500.02, 0.000, 0.000, 0.000, 02:42:19.043
227, 30064.03, 8213.91, -187500.02, -187500.02, -187500.02, -187500.02, -187500.02, -187500.02, 0.000, 0.000, 0.000, 02:42:19.043
228, 30039.02, 8216.41, -187500.02, -187500.02, -187500.02, -187500.02, -187500.02, -187500.02, 0.000, 0.000, 0.000, 02:42:19.043
229, 30053.24, 8212.34, -187500.02, -187500.02, -187500.02, -187500.02, -187500.02, -187500.02, 0.000, 0.000, 0.000, 02:42:19.043
230, 30070.52, 8219.21, -187500.02, -187500.02, -187500.02, -187500.02, -187500.02, -187500.02, 0.000, 0.000, 0.000, 02:42:19.043
231, 30055.96, 8224.19, -187500.02, -187500.02, -187500.02, -187500.02, -187500.02, -187500.02, 0.000, 0.000, 0.000, 02:42:19.044
232, 30040.59, 8186.88, -187500.02, -187500.02, -187500.02, -187500.02, -187500.02, -187500.02, 0.000, 0.000, 0.000, 02:42:19.044
233, 30041.10, 8180.69, -187500.02, -187500.02, -187500.02, -187500.02, -187500.02, -187500.02, 0.000, 0.000, 0.000, 02:42:19.044
234, 30050.04, 8226.25, -187500.02, -187500.02, -187500.02, -187500.02, -187500.02, -187500.02, 0.198, 0.996, -0.090, 02:42:19.044
235, 30031.04, 8206.06, -187500.02, -187500.02, -187500.02, -187500.02, -187500.02, -187500.02, 0.000, 0.000, 0.000, 02:42:19.044
236, 30021.83, 8182.01, -187500.02, -187500.02, -187500.02, -187500.02, -187500.02, -187500.02, 0.000, 0.000, 0.000, 02:42:19.044
237, 30023.42, 8192.00, -187500.02, -187500.02, -187500.02, -187500.02, -187500.02, -187500.02, 0.000, 0.000, 0.000, 02:42:19.044
238, 30040.92, 8206.55, -187500.02, -187500.02, -187500.02, -187500.02, -187500.02, -187500.02, 0.000, 0.000, 0.000, 02:42:19.044
239, 30048.10, 8197.59, -187500.02, -187500.02, -187500.02, -187500.02, -187500.02, -187500.02, 0.000, 0.000, 0.000, 02:42:19.045
240, 30033.61, 8192.34, -187500.02, -187500.02, -187500.02, -187500.02, -187500.02, -187500.02, 0.000, 0.000, 0.000, 02:42:19.045
241, 30001.43, 8204.72, -187500.02, -187500.02, -187500.02, -187500.02, -187500.02, -187500.02, 0.000, 0.000, 0.000, 02:42:19.045
242, 30030.80, 8189.99, -187500.02, -187500.02, -187500.02, -187500.02, -187500.02, -187500.02, 0.000, 0.000, 0.000, 02:42:19.045
243, 30040.16, 8166.84, -187500.02, -187500.02, -187500.02, -187500.02, -187500.02, -187500.02, 0.202, 0.996, -0.090, 02:42:19.045
244, 30031.09, 8201.88, -187500.02, -187500.02, -187500.02, -187500.02, -187500.02, -187500.02, 0.000, 0.000, 0.000, 02:42:19.045
245, 30023.02, 8195.27, -187500.02, -187500.02, -187500.02, -187500.02, -187500.02, -187500.02, 0.000, 0.000, 0.000, 02:42:19.046
246, 30041.35, 8199.27, -187500.02, -187500.02, -187500.02, -187500.02, -187500.02, -187500.02, 0.000, 0.000, 0.000, 02:42:19.046
247, 30047.25, 8223.68, -187500.02, -187500.02, -187500.02, -187500.02, -187500.02, -187500.02, 0.000, 0.000, 0.000, 02:42:19.046
248, 30031.00, 8220.50, -187500.02, -187500.02, -187500.02, -187500.02, -187500.02, -187500.02, 0.000, 0.000, 0.000, 02:42:19.046
249, 30012.56, 8182.10, -187500.02, -187500.02, -187500.02, -187500.02, -187500.02, -187500.02, 0.000, 0.000, 0.000, 02:42:19.046
250, 30019.82, 8192.25, -187500.02, -187500.02, -187500.02, -187500.02, -187500.02, -187500.02, 0.000, 0.000, 0.000, 02:42:19.046
251, 30023.67, 8197.79, -187500.02, -187500.02, -187500.02, -187500.02, -187500.02, -187500.02, 0.000, 0.000, 0.000, 02:42:19.046
252, 30030.46, 8183.53, -187500.02, -187500.02, -187500.02, -187500.02, -187500.02, -187500.02, 0.000, 0.000, 0.000, 02:42:19.046
253, 30021.86, 8179.73, -187500.02, -187500.02, -187500.02, -187500.02, -187500.02, -187500.02, 0.198, 0.988, -0.092, 02:42:19.047
254, 30042.84, 8175.13, -187500.02, -187500.02, -187500.02, -187500.02, -187500.02, -187500.02, 0.000, 0.000, 0.000, 02:42:19.047
255, 30051.76, 8191.00, -187500.02, -187500.02, -187500.02, -187500.02, -187500.02, -187500.02, 0.000, 0.000, 0.000, 02:42:19.047
0, 30049.37, 8199.18, -187500.02, -187500.02, -187500.02, -187500.02, -187500.02, -187500.02, 0.000, 0.000, 0.000, 02:42:19.047
1, 30027.36, 8178.32, -187500.02, -187500.02, -187500.02, -187500.02, -187500.02, -187500.02, 0.000, 0.000, 0.000, 02:42:19.047
2, 30019.22, 8168.11, -187500.02, -187500.02, -187500.02, -187500.02, -187500.02, -187500.02, 0.000, 0.000, 0.000, 02:42:19.047
3, 30042.11, 8203.00, -187500.02, -187500.02, -187500.02, -187500.02, -187500.02, -187500.02, 0.000, 0.000, 0.000, 02:42:19.047
4, 30023.00, 8221.49, -187500.02, -187500.02, -187500.02, -187500.02, -187500.02, -187500.02, 0.000, 0.000, 0.000, 02:42:19.047
5, 30005.14, 8202.44, -187500.02, -187500.02, -187500.02, -187500.02, -187500.02, -187500.02, 0.000, 0.000, 0.000, 02:42:19.048
6, 29999.84, 8184.74, -187500.02, -187500.02, -187500.02, -187500.02, -187500.02, -187500.02, 0.000, 0.000, 0.000, 02:42:19.048
7, 30026.01, 8195.02, -187500.02, -187500.02, -187500.02, -187500.02, -187500.02, -187500.02, 0.202, 0.990, -0.098, 02:42:19.048
8, 30023.96, 8181.32, -187500.02, -187500.02, -187500.02, -187500.02, -187500.02, -187500.02, 0.000, 0.000, 0.000, 02:42:19.048
9, 30012.85, 8172.42, -187500.02, -187500.02, -187500.02, -187500.02, -187500.02, -187500.02, 0.000, 0.000, 0.000, 02:42:19.048
10, 30009.61, 8184.05, -187500.02, -187500.02, -187500.02, -187500.02, -187500.02, -187500.02, 0.000, 0.000, 0.000, 02:42:19.048
11, 30010.81, 8212.50, -187500.02, -187500.02, -187500.02, -187500.02, -187500.02, -187500.02, 0.000, 0.000, 0.000, 02:42:19.048
12, 30033.61, 8172.67, -187500.02, -187500.02, -187500.02, -187500.02, -187500.02, -187500.02, 0.000, 0.000, 0.000, 02:42:19.048
13, 30045.46, 8171.84, -187500.02, -187500.02, -187500.02, -187500.02, -187500.02, -187500.02, 0.000, 0.000, 0.000, 02:42:19.049
14, 30037.41, 8163.17, -187500.02, -187500.02, -187500.02, -187500.02, -187500.02, -187500.02, 0.000, 0.000, 0.000, 02:42:19.049
15, 30056.50, 8197.12, -187500.02, -187500.02, -187500.02, -187500.02, -187500.02, -187500.02, 0.000, 0.000, 0.000, 02:42:19.049
16, 30051.83, 8228.86, -187500.02, -187500.02, -187500.02, -187500.02, -187500.02, -187500.02, 0.000, 0.000, 0.000, 02:42:19.049
17, 30039.31, 8177.85, -187500.02, -187500.02, -187500.02, -187500.02, -187500.02, -187500.02, 0.202, 0.994, -0.092, 02:42:19.049
18, 30012.20, 8152.51, -187500.02, -187500.02, -187500.02, -187500.02, -187500.02, -187500.02, 0.000, 0.000, 0.000, 02:42:19.049
19, 30018.68, 8192.76, -187500.02, -187500.02, -187500.02, -187500.02, -187500.02, -187500.02, 0.000, 0.000, 0.000, 02:42:19.049
20, 30028.49, 8198.42, -187500.02, -187500.02, -187500.02, -187500.02, -187500.02, -187500.02, 0.000, 0.000, 0.000, 02:42:19.049
21, 30018.86, 8187.58, -187500.02, -187500.02, -187500.02, -187500.02, -187500.02, -187500.02, 0.000, 0.000, 0.000, 02:42:19.049
22, 30011.78, 8149.09, -187500.02, -187500.02, -187500.02, -187500.02, -187500.02, -187500.02, 0.000, 0.000, 0.000, 02:42:19.050
23, 30020.94, 8166.05, -187500.02, -187500.02, -187500.02, -187500.02, -187500.02, -187500.02, 0.000, 0.000, 0.000, 02:42:19.050
24, 30040.63, 8204.23, -187500.02, -187500.02, -187500.02, -187500.02, -187500.02, -187500.02, 0.000, 0.000, 0.000, 02:42:19.050
25, 30039.98, 8183.26, -187500.02, -187500.02, -187500.02, -187500.02, -187500.02, -187500.02, 0.000, 0.000, 0.000, 02:42:19.050
26, 30022.84, 8179.58, -187500.02, -187500.02, -187500.02, -187500.02, -187500.02, -187500.02, 0.000, 0.000, 0.000, 02:42:19.050
27, 30015.22, 8175.19, -187500.02, -187500.02, -187500.02, -187500.02, -187500.02, -187500.02, 0.200, 0.996, -0.096, 02:42:19.050
28, 30034.80, 8171.37, -187500.02, -187500.02, -187500.02, -187500.02, -187500.02, -187500.02, 0.000, 0.000, 0.000, 02:42:19.050
29, 30032.72, 8158.14, -187500.02, -187500.02, -187500.02, -187500.02, -187500.02, -187500.02, 0.000, 0.000, 0.000, 02:42:19.050
30, 30016.11, 8191.11, -187500.02, -187500.02, -187500.02, -187500.02, -187500.02, -187500.02, 0.000, 0.000, 0.000, 02:42:19.050
31, 30006.54, 8195.80, -187500.02, -187500.02, -187500.02, -187500.02, -187500.02, -187500.02, 0.000, 0.000, 0.000, 02:42:19.050
32, 30034.26, 8186.88, -187500.02, -187500.02, -187500.02, -187500.02, -187500.02, -187500.02, 0.000, 0.000, 0.000, 02:42:19.051
33, 30033.12, 8195.24, -187500.02, -187500.02, -187500.02, -187500.02, -187500.02, -187500.02, 0.000, 0.000, 0.000, 02:42:19.051
34, 30028.81, 8183.47, -187500.02, -187500.02, -187500.02, -187500.02, -187500.02, -187500.02, 0.000, 0.000, 0.000, 02:42:19.051
35, 30025.63, 8169.56, -187500.02, -187500.02, -187500.02, -187500.02, -187500.02, -187500.02, 0.000, 0.000, 0.000, 02:42:19.051
36, 30032.21, 8185.63, -187500.02, -187500.02, -187500.02, -187500.02, -187500.02, -187500.02, 0.000, 0.000, 0.000, 02:42:19.051
37, 30040.97, 8178.46, -187500.02, -187500.02, -187500.02, -187500.02, -187500.02, -187500.02, 0.204, 0.992, -0.092, 02:42:19.051
38, 30025.23, 8182.84, -187500.02, -187500.02, -187500.02, -187500.02, -187500.02, -187500.02, 0.000, 0.000, 0.000, 02:42:19.052
39, 30010.57, 8167.93, -187500.02, -187500.02, -187500.02, -187500.02, -187500.02, -187500.02, 0.000, 0.000, 0.000, 02:42:19.052
40, 30038.82, 8176.80, -187500.02, -187500.02, -187500.02, -187500.02, -187500.02, -187500.02, 0.000, 0.000, 0.000, 02:42:19.052
41, 30045.48, 8202.26, -187500.02, -187500.02, -187500.02, -187500.02, -187500.02, -187500.02, 0.000, 0.000, 0.000, 02:42:19.052
42, 30049.42, 8183.31, -187500.02, -187500.02, -187500.02, -187500.02, -187500.02, -187500.02, 0.000, 0.000, 0.000, 02:42:19.052
43, 30033.41, 8167.15, -187500.02, -187500.02, -187500.02, -187500.02, -187500.02, -187500.02, 0.000, 0.000, 0.000, 02:42:19.052
44, 30034.22, 8186.55, -187500.02, -187500.02, -187500.02, -187500.02, -187500.02, -187500.02, 0.000, 0.000, 0.000, 02:42:19.053
45, 30042.87, 8201.88, -187500.02, -187500.02, -187500.02, -187500.02, -187500.02, -187500.02, 0.000, 0.000, 0.000, 02:42:19.053
46, 30037.75, 8168.76, -187500.02, -187500.02, -187500.02, -187500.02, -187500.02, -187500.02, 0.208, 0.994, -0.096, 02:42:19.053
47, 30021.90, 8160.08, -187500.02, -187500.02, -187500.02, -187500.02, -187500.02, -187500.02, 0.000, 0.000, 0.000, 02:42:19.053
48, 30024.18, 8172.40, -187500.02, -187500.02, -187500.02, -187500.02, -187500.02, -187500.02, 0.000, 0.000, 0.000, 02:42:19.053
49, 30048.43, 8182.82, -187500.02, -187500.02, -187500.02, -187500.02, -187500.02, -187500.02, 0.000, 0.000, 0.000, 02:42:19.053
50, 30047.74, 8195.02, -187500.02, -187500.02, -187500.02, -187500.02, -187500.02, -187500.02, 0.000, 0.000, 0.000, 02:42:19.053
51, 30034.20, 8178.12, -187500.02, -187500.02, -187500.02, -187500.02, -187500.02, -187500.02, 0.000, 0.000, 0.000, 02:42:19.054
52, 30023.33, 8168.62, -187500.02, -187500.02, -187500.02, -187500.02, -187500.02, -187500.02, 0.000, 0.000, 0.000, 02:42:19.054
53, 30046.73, 8172.40, -187500.02, -187500.02, -187500.02, -187500.02, -187500.02, -187500.02, 0.000, 0.000, 0.000, 02:42:19.054
54, 30048.70, 8181.59, -187500.02, -187500.02, -187500.02, -187500.02, -187500.02, -187500.02, 0.000, 0.000, 0.000, 02:42:19.054
55, 30036.01, 8173.29, -187500.02, -187500.02, -187500.02, -187500.02, -187500.02, -187500.02, 0.000, 0.000, 0.000, 02:42:19.054
56, 30022.17, 8164.22, -187500.02, -187500.02, -187500.02, -187500.02, -187500.02, -187500.02, 0.204, 0.992, -0.094, 02:42:19.054
57, 30045.55, 8161.85, -187500.02, -187500.02, -187500.02, -187500.02, -187500.02, -187500.02, 0.000, 0.000, 0.000, 02:42:19.054
58, 30052.90, 8184.18, -187500.02, -187500.02, -187500.02, -187500.02, -187500.02, -187500.02, 0.000, 0.000, 0.000, 02:42:19.054
59, 30041.55, 8205.50, -187500.02, -187500.02, -187500.02, -187500.02, -187500.02, -187500.02, 0.000, 0.000, 0.000, 02:42:19.054
60, 30019.42, 8165.25, -187500.02, -187500.02, -187500.02, -187500.02, -187500.02, -187500.02, 0.000, 0.000, 0.000, 02:42:19.055
61, 30036.88, 8161.94, -187500.02, -187500.02, -187500.02, -187500.02, -187500.02, -187500.02, 0.000, 0.000, 0.000, 02:42:19.055
62, 30039.58, 8166.46, -187500.02, -187500.02, -187500.02, -187500.02, -187500.02, -187500.02, 0.000, 0.000, 0.000, 02:42:19.055
63, 30035.31, 8159.59, -187500.02, -187500.02, -187500.02, -187500.02, -187500.02, -187500.02, 0.000, 0.000, 0.000, 02:42:19.055
64, 30016.89, 8170.59, -187500.02, -187500.02, -187500.02, -187500.02, -187500.02, -187500.02, 0.000, 0.000, 0.000, 02:42:19.055
65, 30027.76, 8163.39, -187500.02, -187500.02, -187500.02, -187500.02, -187500.02, -187500.02, 0.000, 0.000, 0.000, 02:42:19.055
66, 30038.93, 8176.27, -187500.02, -187500.02, -187500.02, -187500.02, -187500.02, -187500.02, 0.204, 0.986, -0.094, 02:42:19.055
67, 30033.10, 8170.81, -187500.02, -187500.02, -187500.02, -187500.02, -187500.02, -187500.02, 0.000, 0.000, 0.000, 02:42:19.055
68, 30013.14, 8157.11, -187500.02, -187500.02, -187500.02, -187500.02, -187500.02, -187500.02, 0.000, 0.000, 0.000, 02:42:19.055
69, 30030.98, 8144.91, -187500.02, -187500.02, -187500.02, -187500.02, -187500.02, -187500.02, 0.000, 0.000, 0.000, 02:42:19.056
70, 30055.12, 8152.93, -187500.02, -187500.02, -187500.02, -187500.02, -187500.02, -187500.02, 0.000, 0.000, 0.000, 02:42:19.056
71, 30050.67, 8176.07, -187500.02, -187500.02, -187500.02, -187500.02, -187500.02, -187500.02, 0.000, 0.000, 0.000, 02:42:19.056
72, 30034.13, 8169.34, -187500.02, -187500.02, -187500.02, -187500.02, -187500.02, -187500.02, 0.000, 0.000, 0.000, 02:42:19.056
73, 30031.06, 8146.74, -187500.02, -187500.02, -187500.02, -187500.02, -187500.02, -187500.02, 0.000, 0.000, 0.000, 02:42:19.056
74, 30050.40, 8146.34, -187500.02, -187500.02, -187500.02, -187500.02, -187500.02, -187500.02, 0.000, 0.000, 0.000, 02:42:19.056
75, 30025.59, 8176.74, -187500.02, -187500.02, -187500.02, -187500.02, -187500.02, -187500.02, 0.000, 0.000, 0.000, 02:42:19.522
76, 30026.86, 8164.22, -187500.02, -187500.02, -187500.02, -187500.02, -187500.02, -187500.02, 0.204, 0.994, -0.094, 02:42:19.522
77, 30026.30, 8160.02, -187500.02, -187500.02, -187500.02, -187500.02, -187500.02, -187500.02, 0.000, 0.000, 0.000, 02:42:19.522
78, 30040.10, 8156.06, -187500.02, -187500.02, -187500.02, -187500.02, -187500.02, -187500.02, 0.000, 0.000, 0.000, 02:42:19.522
79, 30040.47, 8153.42, -187500.02, -187500.02, -187500.02, -187500.02, -187500.02, -187500.02, 0.000, 0.000, 0.000, 02:42:19.523
80, 30028.21, 8175.33, -187500.02, -187500.02, -187500.02, -187500.02, -187500.02, -187500.02, 0.000, 0.000, 0.000, 02:42:19.523
81, 30021.32, 8172.94, -187500.02, -187500.02, -187500.02, -187500.02, -187500.02, -187500.02, 0.000, 0.000, 0.000, 02:42:19.523
82, 30050.09, 8158.21, -187500.02, -187500.02, -187500.02, -187500.02, -187500.02, -187500.02, 0.000, 0.000, 0.000, 02:42:19.523
83, 30038.33, 8152.49, -187500.02, -187500.02, -187500.02, -187500.02, -187500.02, -187500.02, 0.000, 0.000, 0.000, 02:42:19.523
84, 30020.78, 8134.43, -187500.02, -187500.02, -187500.02, -187500.02, -187500.02, -187500.02, 0.000, 0.000, 0.000, 02:42:19.523
85, 30007.84, 8117.95, -187500.02, -187500.02, -187500.02, -187500.02, -187500.02, -187500.02, 0.000, 0.000, 0.000, 02:42:19.523
86, 30026.91, 8140.46, -187500.02, -187500.02, -187500.02, -187500.02, -187500.02, -187500.02, 0.200, 0.992, -0.092, 02:42:19.523
87, 30037.55, 8160.17, -187500.02, -187500.02, -187500.02, -187500.02, -187500.02, -187500.02, 0.000, 0.000, 0.000, 02:42:19.524
88, 30035.89, 8155.57, -187500.02, -187500.02, -187500.02, -187500.02, -187500.02, -187500.02, 0.000, 0.000, 0.000, 02:42:19.524
89, 30024.40, 8154.25, -187500.02, -187500.02, -187500.02, -187500.02, -187500.02, -187500.02, 0.000, 0.000, 0.000, 02:42:19.524
90, 30029.68, 8157.78, -187500.02, -187500.02, -187500.02, -187500.02, -187500.02, -187500.02, 0.000, 0.000, 0.000, 02:42:19.524
91, 30050.78, 8157.20, -187500.02, -187500.02, -187500.02, -187500.02, -187500.02, -187500.02, 0.000, 0.000, 0.000, 02:42:19.524
92, 30040.16, 8185.05, -187500.02, -187500.02, -187500.02, -187500.02, -187500.02, -187500.02, 0.000, 0.000, 0.000, 02:42:19.524
93, 30005.83, 8178.79, -187500.02, -187500.02, -187500.02, -187500.02, -187500.02, -187500.02, 0.000, 0.000, 0.000, 02:42:19.524
94, 30014.66, 8147.90, -187500.02, -187500.02, -187500.02, -187500.02, -187500.02, -187500.02, 0.000, 0.000, 0.000, 02:42:19.524
95, 30040.03, 8167.06, -187500.02, -187500.02, -187500.02, -187500.02, -187500.02, -187500.02, 0.000, 0.000, 0.000, 02:42:19.525
96, 30044.86, 8167.35, -187500.02, -187500.02, -187500.02, -187500.02, -187500.02, -187500.02, 0.206, 0.994, -0.088, 02:42:19.525
97, 30034.44, 8139.68, -187500.02, -187500.02, -187500.02, -187500.02, -187500.02, -187500.02, 0.000, 0.000, 0.000, 02:42:19.525
98, 30031.91, 8131.01, -187500.02, -187500.02, -187500.02, -187500.02, -187500.02, -187500.02, 0.000, 0.000, 0.000, 02:42:19.525
99, 30054.15, 8128.08, -187500.02, -187500.02, -187500.02, -187500.02, -187500.02, -187500.02, 0.000, 0.000, 0.000, 02:42:19.525
100, 30053.89, 8144.48, -187500.02, -187500.02, -187500.02, -187500.02, -187500.02, -187500.02, 0.000, 0.000, 0.000, 02:42:19.525
101, 30031.65, 8166.70, -187500.02, -187500.02, -187500.02, -187500.02, -187500.02, -187500.02, 0.000, 0.000, 0.000, 02:42:19.525
102, 30024.38, 8161.76, -187500.02, -187500.02, -187500.02, -187500.02, -187500.02, -187500.02, 0.000, 0.000, 0.000, 02:42:19.525
103, 30047.85, 8146.96, -187500.02, -187500.02, -187500.02, -187500.02, -187500.02, -187500.02, 0.000, 0.000, 0.000, 02:42:19.526
104, 30036.97, 8150.94, -187500.02, -187500.02, -187500.02, -187500.02, -187500.02, -187500.02, 0.000, 0.000, 0.000, 02:42:19.526
105, 30030.84, 8171.19, -187500.02, -187500.02, -187500.02, -187500.02, -187500.02, -187500.02, 0.000, 0.000, 0.000, 02:42:19.526
106, 30021.23, 8156.87, -187500.02, -187500.02, -187500.02, -187500.02, -187500.02, -187500.02, 0.200, 1.000, -0.082, 02:42:19.526
107, 30052.05, 8130.18, -187500.02, -187500.02, -187500.02, -187500.02, -187500.02, -187500.02, 0.000, 0.000, 0.000, 02:42:19.526
108, 30055.67, 8157.27, -187500.02, -187500.02, -187500.02, -187500.02, -187500.02, -187500.02, 0.000, 0.000, 0.000, 02:42:19.526
109, 30030.21, 8177.25, -187500.02, -187500.02, -187500.02, -187500.02, -187500.02, -187500.02, 0.000, 0.000, 0.000, 02:42:19.527
110, 30008.36, 8154.88, -187500.02, -187500.02, -187500.02, -187500.02, -187500.02, -187500.02, 0.000, 0.000, 0.000, 02:42:19.527
111, 30026.86, 8163.28, -187500.02, -187500.02, -187500.02, -187500.02, -187500.02, -187500.02, 0.000, 0.000, 0.000, 02:42:19.527
112, 30041.03, 8145.82, -187500.02, -187500.02, -187500.02, -187500.02, -187500.02, -187500.02, 0.000, 0.000, 0.000, 02:42:19.527
113, 30037.53, 8140.95, -187500.02, -187500.02, -187500.02, -187500.02, -187500.02, -187500.02, 0.000, 0.000, 0.000, 02:42:19.527
114, 30047.07, 8113.64, -187500.02, -187500.02, -187500.02, -187500.02, -187500.02, -187500.02, 0.000, 0.000, 0.000, 02:42:19.527
115, 30054.54, 8112.74, -187500.02, -187500.02, -187500.02, -187500.02, -187500.02, -187500.02, 0.208, 1.002, -0.088, 02:42:19.527
116, 30048.59, 8147.97, -187500.02, -187500.02, -187500.02, -187500.02, -187500.02, -187500.02, 0.000, 0.000, 0.000, 02:42:19.528
117, 30042.98, 8147.14, -187500.02, -187500.02, -187500.02, -187500.02, -187500.02, -187500.02, 0.000, 0.000, 0.000, 02:42:19.528
118, 30023.94, 8131.81, -187500.02, -187500.02, -187500.02, -187500.02, -187500.02, -187500.02, 0.000, 0.000, 0.000, 02:42:19.528
119, 30022.55, 8126.62, -187500.02, -187500.02, -187500.02, -187500.02, -187500.02, -187500.02, 0.000, 0.000, 0.000, 02:42:19.528
120, 30037.48, 8160.40, -187500.02, -187500.02, -187500.02, -187500.02, -187500.02, -187500.02, 0.000, 0.000, 0.000, 02:42:19.528
121, 30056.57, 8142.14, -187500.02, -187500.02, -187500.02, -187500.02, -187500.02, -187500.02, 0.000, 0.000, 0.000, 02:42:19.528
122, 30046.18, 8131.23, -187500.02, -187500.02, -187500.02, -187500.02, -187500.02, -187500.02, 0.000, 0.000, 0.000, 02:42:19.528
123, 30027.89, 8146.61, -187500.02, -187500.02, -187500.02, -187500.02, -187500.02, -187500.02, 0.000, 0.000, 0.000, 02:42:19.528
124, 30046.22, 8163.01, -187500.02, -187500.02, -187500.02, -187500.02, -187500.02, -187500.02, 0.000, 0.000, 0.000, 02:42:19.529
125, 30035.96, 8156.02, -187500.02, -187500.02, -187500.02, -187500.02, -187500.02, -187500.02, 0.206, 1.000, -0.084, 02:42:19.529
126, 30022.21, 8138.36, -187500.02, -187500.02, -187500.02, -187500.02, -187500.02, -187500.02, 0.000, 0.000, 0.000, 02:42:19.529
127, 30008.89, 8123.36, -187500.02, -187500.02, -187500.02, -187500.02, -187500.02, -187500.02, 0.000, 0.000, 0.000, 02:42:19.529
128, 30028.70, 8157.63, -187500.02, -187500.02, -187500.02, -187500.02, -187500.02, -187500.02, 0.000, 0.000, 0.000, 02:42:19.529
129, 30041.86, 8163.42, -187500.02, -187500.02, -187500.02, -187500.02, -187500.02, -187500.02, 0.000, 0.000, 0.000, 02:42:19.529
130, 30038.35, 8158.88, -187500.02, -187500.02, -187500.02, -187500.02, -187500.02, -187500.02, 0.000, 0.000, 0.000, 02:42:19.529
131, 30034.08, 8125.69, -187500.02, -187500.02, -187500.02, -187500.02, -187500.02, -187500.02, 0.000, 0.000, 0.000, 02:42:19.529
132, 30047.22, 8125.37, -187500.02, -187500.02, -187500.02, -187500.02, -187500.02, -187500.02, 0.000, 0.000, 0.000, 02:42:19.529
133, 30045.50, 8172.89, -187500.02, -187500.02, -187500.02, -187500.02, -187500.02, -187500.02, 0.000, 0.000, 0.000, 02:42:19.529
134, 30049.48, 8202.02, -187500.02, -187500.02, -187500.02, -187500.02, -187500.02, -187500.02, 0.000, 0.000, 0.000, 02:42:19.530
135, 30032.94, 8174.10, -187500.02, -187500.02, -187500.02, -187500.02, -187500.02, -187500.02, 0.208, 0.996, -0.088, 02:42:19.530
136, 30038.53, 8185.57, -187500.02, -187500.02, -187500.02, -187500.02, -187500.02, -187500.02, 0.000, 0.000, 0.000, 02:42:19.530
137, 30048.81, 8193.05, -187500.02, -187500.02, -187500.02, -187500.02, -187500.02, -187500.02, 0.000, 0.000, 0.000, 02:42:19.530
138, 30053.80, 8178.08, -187500.02, -187500.02, -187500.02, -187500.02, -187500.02, -187500.02, 0.000, 0.000, 0.000, 02:42:19.530
139, 30031.02, 8192.21, -187500.02, -187500.02, -187500.02, -187500.02, -187500.02, -187500.02, 0.000, 0.000, 0.000, 02:42:19.530
140, 30051.38, 8182.35, -187500.02, -187500.02, -187500.02, -187500.02, -187500.02, -187500.02, 0.000, 0.000, 0.000, 02:42:19.530
141, 30066.58, 8216.72, -187500.02, -187500.02, -187500.02, -187500.02, -187500.02, -187500.02, 0.000, 0.000, 0.000, 02:42:19.530
142, 30070.20, 8214.44, -187500.02, -187500.02, -187500.02, -187500.02, -187500.02, -187500.02, 0.000, 0.000, 0.000, 02:42:19.531
143, 30050.78, 8194.10, -187500.02, -187500.02, -187500.02, -187500.02, -187500.02, -187500.02, 0.000, 0.000, 0.000, 02:42:19.531
144, 30050.09, 8180.49, -187500.02, -187500.02, -187500.02, -187500.02, -187500.02, -187500.02, 0.000, 0.000, 0.000, 02:42:19.531
145, 30079.68, 8184.83, -187500.02, -187500.02, -187500.02, -187500.02, -187500.02, -187500.02, 0.204, 0.990, -0.084, 02:42:19.531
146, 30069.24, 8199.18, -187500.02, -187500.02, -187500.02, -187500.02, -187500.02, -187500.02, 0.000, 0.000, 0.000, 02:42:19.531
147, 30054.74, 8192.00, -187500.02, -187500.02, -187500.02, -187500.02, -187500.02, -187500.02, 0.000, 0.000, 0.000, 02:42:19.531
148, 30054.04, 8204.63, -187500.02, -187500.02, -187500.02, -187500.02, -187500.02, -187500.02, 0.000, 0.000, 0.000, 02:42:19.531
149, 30074.88, 8215.70, -187500.02, -187500.02, -187500.02, -187500.02, -187500.02, -187500.02, 0.000, 0.000, 0.000, 02:42:19.531
150, 30080.04, 8206.58, -187500.02, -187500.02, -187500.02, -187500.02, -187500.02, -187500.02, 0.000, 0.000, 0.000, 02:42:19.531
151, 30062.67, 8226.07, -187500.02, -187500.02, -187500.02, -187500.02, -187500.02, -187500.02, 0.000, 0.000, 0.000, 02:42:19.531
152, 30066.63, 8204.63, -187500.02, -187500.02, -187500.02, -187500.02, -187500.02, -187500.02, 0.000, 0.000, 0.000, 02:42:19.532
153, 30077.60, 8227.41, -187500.02, -187500.02, -187500.02, -187500.02, -187500.02, -187500.02, 0.000, 0.000, 0.000, 02:42:19.532
154, 30068.75, 8226.92, -187500.02, -187500.02, -187500.02, -187500.02, -187500.02, -187500.02, 0.000, 0.000, 0.000, 02:42:19.532
155, 30059.92, 8217.24, -187500.02, -187500.02, -187500.02, -187500.02, -187500.02, -187500.02, 0.202, 0.998, -0.088, 02:42:19.532
