%OpenBCI Raw EEG Data
%
%Sample Rate = 250.0 Hz
%First Column = SampleIndex
%Last Column = Timestamp 
%Other Columns = EEG data in microvolts followed by Accel Data (in G) interleaved with Aux Data
0, 0.00, 0.00, 0.00, 0.00, 0.00, 0.00, 0.00, 0.00, 0.000, 0.000, 0.000, 02:41:04.231
1, 29697.58, 8299.00, -187500.02, -187500.02, -187500.02, -187500.02, -187500.02, -187500.02, 0.214, 0.990, -0.086, 02:41:04.708
2, 29688.79, 8267.08, -187500.02, -187500.02, -187500.02, -187500.02, -187500.02, -187500.02, 0.000, 0.000, 0.000, 02:41:04.708
3, 29737.70, 8285.03, -187500.02, -187500.02, -187500.02, -187500.02, -187500.02, -187500.02, 0.000, 0.000, 0.000, 02:41:04.708
4, 29752.07, 8299.92, -187500.02, -187500.02, -187500.02, -187500.02, -187500.02, -187500.02, 0.000, 0.000, 0.000, 02:41:04.709
5, 29725.25, 8318.29, -187500.02, -187500.02, -187500.02, -187500.02, -187500.02, -187500.02, 0.000, 0.000, 0.000, 02:41:04.709
6, 29697.89, 8283.58, -187500.02, -187500.02, -187500.02, -187500.02, -187500.02, -187500.02, 0.000, 0.000, 0.000, 02:41:04.709
7, 29702.70, 8285.93, -187500.02, -187500.02, -187500.02, -187500.02, -187500.02, -187500.02, 0.000, 0.000, 0.000, 02:41:04.709
8, 29716.91, 8301.95, -187500.02, -187500.02, -187500.02, -187500.02, -187500.02, -187500.02, 0.210, 0.996, -0.092, 02:41:04.709
9, 29711.50, 8282.73, -187500.02, -187500.02, -187500.02, -187500.02, -187500.02, -187500.02, 0.000, 0.000, 0.000, 02:41:04.709
10, 29686.38, 8256.94, -187500.02, -187500.02, -187500.02, -187500.02, -187500.02, -187500.02, 0.000, 0.000, 0.000, 02:41:04.710
11, 29698.87, 8265.52, -187500.02, -187500.02, -187500.02, -187500.02, -187500.02, -187500.02, 0.000, 0.000, 0.000, 02:41:04.710
12, 29731.42, 8302.98, -187500.02, -187500.02, -187500.02, -187500.02, -187500.02, -187500.02, 0.000, 0.000, 0.000, 02:41:04.710
13, 29721.98, 8304.10, -187500.02, -187500.02, -187500.02, -187500.02, -187500.02, -187500.02, 0.000, 0.000, 0.000, 02:41:04.710
14, 29686.78, 8259.26, -187500.02, -187500.02, -187500.02, -187500.02, -187500.02, -187500.02, 0.000, 0.000, 0.000, 02:41:04.710
15, 29697.18, 8267.80, -187500.02, -187500.02, -187500.02, -187500.02, -187500.02, -187500.02, 0.000, 0.000, 0.000, 02:41:04.710
16, 29731.62, 8295.18, -187500.02, -187500.02, -187500.02, -187500.02, -187500.02, -187500.02, 0.000, 0.000, 0.000, 02:41:04.710
17, 29726.32, 8292.52, -187500.02, -187500.02, -187500.02, -187500.02, -187500.02, -187500.02, 0.208, 0.990, -0.096, 02:41:04.710
18, 29699.79, 8274.46, -187500.02, -187500.02, -187500.02, -187500.02, -187500.02, -187500.02, 0.000, 0.000, 0.000, 02:41:04.711
19, 29682.51, 8248.04, -187500.02, -187500.02, -187500.02, -187500.02, -187500.02, -187500.02, 0.000, 0.000, 0.000, 02:41:04.711
20, 29699.86, 8268.16, -187500.02, -187500.02, -187500.02, -187500.02, -187500.02, -187500.02, 0.000, 0.000, 0.000, 02:41:04.711
21, 29726.90, 8259.71, -187500.02, -187500.02, -187500.02, -187500.02, -187500.02, -187500.02, 0.000, 0.000, 0.000, 02:41:04.711
22, 29714.27, 8287.80, -187500.02, -187500.02, -187500.02, -187500.02, -187500.02, -187500.02, 0.000, 0.000, 0.000, 02:41:04.711
23, 29694.58, 8261.96, -187500.02, -187500.02, -187500.02, -187500.02, -187500.02, -187500.02, 0.000, 0.000, 0.000, 02:41:04.711
24, 29709.36, 8279.17, -187500.02, -187500.02, -187500.02, -187500.02, -187500.02, -187500.02, 0.000, 0.000, 0.000, 02:41:04.711
25, 29719.79, 8274.71, -187500.02, -187500.02, -187500.02, -187500.02, -187500.02, -187500.02, 0.000, 0.000, 0.000, 02:41:04.711
26, 29718.72, 8267.26, -187500.02, -187500.02, -187500.02, -187500.02, -187500.02, -187500.02, 0.000, 0.000, 0.000, 02:41:04.711
27, 29687.38, 8243.03, -187500.02, -187500.02, -187500.02, -187500.02, -187500.02, -187500.02, 0.216, 0.992, -0.092, 02:41:04.712
28, 29710.70, 8234.38, -187500.02, -187500.02, -187500.02, -187500.02, -187500.02, -187500.02, 0.000, 0.000, 0.000, 02:41:04.712
29, 29721.18, 8306.24, -187500.02, -187500.02, -187500.02, -187500.02, -187500.02, -187500.02, 0.000, 0.000, 0.000, 02:41:04.712
30, 29711.37, 8296.36, -187500.02, -187500.02, -187500.02, -187500.02, -187500.02, -187500.02, 0.000, 0.000, 0.000, 02:41:04.712
31, 29680.68, 8246.92, -187500.02, -187500.02, -187500.02, -187500.02, -187500.02, -187500.02, 0.000, 0.000, 0.000, 02:41:04.712
32, 29694.74, 8254.25, -187500.02, -187500.02, -187500.02, -187500.02, -187500.02, -187500.02, 0.000, 0.000, 0.000, 02:41:04.712
33, 29727.66, 8282.91, -187500.02, -187500.02, -187500.02, -187500.02, -187500.02, -187500.02, 0.000, 0.000, 0.000, 02:41:04.713
34, 29712.80, 8282.46, -187500.02, -187500.02, -187500.02, -187500.02, -187500.02, -187500.02, 0.000, 0.000, 0.000, 02:41:04.713
35, 29685.04, 8265.74, -187500.02, -187500.02, -187500.02, -187500.02, -187500.02, -187500.02, 0.000, 0.000, 0.000, 02:41:04.713
36, 29698.25, 8226.40, -187500.02, -187500.02, -187500.02, -187500.02, -187500.02, -187500.02, 0.000, 0.000, 0.000, 02:41:04.713
37, 29721.45, 8267.49, -187500.02, -187500.02, -187500.02, -187500.02, -187500.02, -187500.02, 0.214, 0.992, -0.098, 02:41:04.713
38, 29723.10, 8258.81, -187500.02, -187500.02, -187500.02, -187500.02, -187500.02, -187500.02, 0.000, 0.000, 0.000, 02:41:04.713
39, 29698.18, 8272.80, -187500.02, -187500.02, -187500.02, -187500.02, -187500.02, -187500.02, 0.000, 0.000, 0.000, 02:41:04.713
40, 29695.61, 8250.99, -187500.02, -187500.02, -187500.02, -187500.02, -187500.02, -187500.02, 0.000, 0.000, 0.000, 02:41:04.713
41, 29728.62, 8263.06, -187500.02, -187500.02, -187500.02, -187500.02, -187500.02, -187500.02, 0.000, 0.000, 0.000, 02:41:04.713
42, 29720.11, 8273.16, -187500.02, -187500.02, -187500.02, -187500.02, -187500.02, -187500.02, 0.000, 0.000, 0.000, 02:41:04.714
43, 29700.71, 8279.82, -187500.02, -187500.02, -187500.02, -187500.02, -187500.02, -187500.02, 0.000, 0.000, 0.000, 02:41:04.714
44, 29687.83, 8242.23, -187500.02, -187500.02, -187500.02, -187500.02, -187500.02, -187500.02, 0.000, 0.000, 0.000, 02:41:04.714
45, 29711.37, 8259.93, -187500.02, -187500.02, -187500.02, -187500.02, -187500.02, -187500.02, 0.000, 0.000, 0.000, 02:41:04.714
46, 29712.35, 8301.77, -187500.02, -187500.02, -187500.02, -187500.02, -187500.02, -187500.02, 0.000, 0.000, 0.000, 02:41:04.714
47, 29700.77, 8277.50, -187500.02, -187500.02, -187500.02, -187500.02, -187500.02, -187500.02, 0.216, 0.992, -0.096, 02:41:04.714
48, 29674.98, 8249.87, -187500.02, -187500.02, -187500.02, -187500.02, -187500.02, -187500.02, 0.000, 0.000, 0.000, 02:41:04.715
49, 29702.25, 8250.54, -187500.02, -187500.02, -187500.02, -187500.02, -187500.02, -187500.02, 0.000, 0.000, 0.000, 02:41:04.715
50, 29719.46, 8277.79, -187500.02, -187500.02, -187500.02, -187500.02, -187500.02, -187500.02, 0.000, 0.000, 0.000, 02:41:04.715
51, 29710.07, 8264.36, -187500.02, -187500.02, -187500.02, -187500.02, -187500.02, -187500.02, 0.000, 0.000, 0.000, 02:41:04.715
52, 29687.21, 8262.63, -187500.02, -187500.02, -187500.02, -187500.02, -187500.02, -187500.02, 0.000, 0.000, 0.000, 02:41:04.715
53, 29705.22, 8259.06, -187500.02, -187500.02, -187500.02, -187500.02, -187500.02, -187500.02, 0.000, 0.000, 0.000, 02:41:04.715
54, 29727.21, 8273.27, -187500.02, -187500.02, -187500.02, -187500.02, -187500.02, -187500.02, 0.000, 0.000, 0.000, 02:41:04.715
55, 29725.54, 8261.23, -187500.02, -187500.02, -187500.02, -187500.02, -187500.02, -187500.02, 0.000, 0.000, 0.000, 02:41:04.715
56, 29682.47, 8247.91, -187500.02, -187500.02, -187500.02, -187500.02, -187500.02, -187500.02, 0.000, 0.000, 0.000, 02:41:04.715
57, 29695.45, 8223.09, -187500.02, -187500.02, -187500.02, -187500.02, -187500.02, -187500.02, 0.220, 0.994, -0.090, 02:41:04.716
58, 29738.08, 8214.13, -187500.02, -187500.02, -187500.02, -187500.02, -187500.02, -187500.02, 0.000, 0.000, 0.000, 02:41:04.716
59, 29718.74, 8277.75, -187500.02, -187500.02, -187500.02, -187500.02, -187500.02, -187500.02, 0.000, 0.000, 0.000, 02:41:04.716
60, 29690.18, 8240.48, -187500.02, -187500.02, -187500.02, -187500.02, -187500.02, -187500.02, 0.000, 0.000, 0.000, 02:41:04.716
61, 29697.73, 8228.62, -187500.02, -187500.02, -187500.02, -187500.02, -187500.02, -187500.02, 0.000, 0.000, 0.000, 02:41:04.716
62, 29708.39, 8265.85, -187500.02, -187500.02, -187500.02, -187500.02, -187500.02, -187500.02, 0.000, 0.000, 0.000, 02:41:04.716
63, 29708.28, 8283.80, -187500.02, -187500.02, -187500.02, -187500.02, -187500.02, -187500.02, 0.000, 0.000, 0.000, 02:41:04.717
64, 29689.96, 8267.33, -187500.02, -187500.02, -187500.02, -187500.02, -187500.02, -187500.02, 0.000, 0.000, 0.000, 02:41:04.724
65, 29691.45, 8248.35, -187500.02, -187500.02, -187500.02, -187500.02, -187500.02, -187500.02, 0.000, 0.000, 0.000, 02:41:04.725
66, 29721.98, 8268.78, -187500.02, -187500.02, -187500.02, -187500.02, -187500.02, -187500.02, 0.000, 0.000, 0.000, 02:41:04.725
67, 29726.03, 8265.88, -187500.02, -187500.02, -187500.02, -187500.02, -187500.02, -187500.02, 0.218, 0.992, -0.094, 02:41:04.725
68, 29713.13, 8238.32, -187500.02, -187500.02, -187500.02, -187500.02, -187500.02, -187500.02, 0.000, 0.000, 0.000, 02:41:04.725
69, 29677.91, 8236.93, -187500.02, -187500.02, -187500.02, -187500.02, -187500.02, -187500.02, 0.000, 0.000, 0.000, 02:41:04.725
70, 29709.40, 8237.36, -187500.02, -187500.02, -187500.02, -187500.02, -187500.02, -187500.02, 0.000, 0.000, 0.000, 02:41:04.725
71, 29715.79, 8242.36, -187500.02, -187500.02, -187500.02, -187500.02, -187500.02, -187500.02, 0.000, 0.000, 0.000, 02:41:04.725
72, 29699.19, 8243.66, -187500.02, -187500.02, -187500.02, -187500.02, -187500.02, -187500.02, 0.000, 0.000, 0.000, 02:41:04.725
73, 29686.51, 8230.94, -187500.02, -187500.02, -187500.02, -187500.02, -187500.02, -187500.02, 0.000, 0.000, 0.000, 02:41:04.725
74, 29710.94, 8236.59, -187500.02, -187500.02, -187500.02, -187500.02, -187500.02, -187500.02, 0.000, 0.000, 0.000, 02:41:04.725
75, 29716.73, 8260.69, -187500.02, -187500.02, -187500.02, -187500.02, -187500.02, -187500.02, 0.000, 0.000, 0.000, 02:41:04.725
76, 29711.26, 8241.96, -187500.02, -187500.02, -187500.02, -187500.02, -187500.02, -187500.02, 0.000, 0.000, 0.000, 02:41:04.726
77, 29693.49, 8232.30, -187500.02, -187500.02, -187500.02, -187500.02, -187500.02, -187500.02, 0.218, 0.990, -0.090, 02:41:04.726
78, 29708.17, 8253.14, -187500.02, -187500.02, -187500.02, -187500.02, -187500.02, -187500.02, 0.000, 0.000, 0.000, 02:41:04.726
79, 29718.72, 8263.06, -187500.02, -187500.02, -187500.02, -187500.02, -187500.02, -187500.02, 0.000, 0.000, 0.000, 02:41:04.726
80, 29702.25, 8251.95, -187500.02, -187500.02, -187500.02, -187500.02, -187500.02, -187500.02, 0.000, 0.000, 0.000, 02:41:04.726
81, 29694.56, 8226.83, -187500.02, -187500.02, -187500.02, -187500.02, -187500.02, -187500.02, 0.000, 0.000, 0.000, 02:41:04.726
82, 29701.18, 8222.92, -187500.02, -187500.02, -187500.02, -187500.02, -187500.02, -187500.02, 0.000, 0.000, 0.000, 02:41:04.726
83, 29720.17, 8274.59, -187500.02, -187500.02, -187500.02, -187500.02, -187500.02, -187500.02, 0.000, 0.000, 0.000, 02:41:04.726
84, 29720.82, 8273.01, -187500.02, -187500.02, -187500.02, -187500.02, -187500.02, -187500.02, 0.000, 0.000, 0.000, 02:41:04.726
85, 29692.59, 8242.27, -187500.02, -187500.02, -187500.02, -187500.02, -187500.02, -187500.02, 0.000, 0.000, 0.000, 02:41:04.727
86, 29694.89, 8229.62, -187500.02, -187500.02, -187500.02, -187500.02, -187500.02, -187500.02, 0.216, 0.986, -0.082, 02:41:04.727
87, 29722.32, 8259.66, -187500.02, -187500.02, -187500.02, -187500.02, -187500.02, -187500.02, 0.000, 0.000, 0.000, 02:41:04.727
88, 29724.00, 8249.83, -187500.02, -187500.02, -187500.02, -187500.02, -187500.02, -187500.02, 0.000, 0.000, 0.000, 02:41:04.727
89, 29695.95, 8208.63, -187500.02, -187500.02, -187500.02, -187500.02, -187500.02, -187500.02, 0.000, 0.000, 0.000, 02:41:04.727
90, 29692.19, 8205.24, -187500.02, -187500.02, -187500.02, -187500.02, -187500.02, -187500.02, 0.000, 0.000, 0.000, 02:41:04.727
91, 29728.06, 8256.71, -187500.02, -187500.02, -187500.02, -187500.02, -187500.02, -187500.02, 0.000, 0.000, 0.000, 02:41:04.727
92, 29724.38, 8288.09, -187500.02, -187500.02, -187500.02, -187500.02, -187500.02, -187500.02, 0.000, 0.000, 0.000, 02:41:04.727
93, 29708.19, 8236.24, -187500.02, -187500.02, -187500.02, -187500.02, -187500.02, -187500.02, 0.000, 0.000, 0.000, 02:41:04.728
94, 29692.82, 8218.58, -187500.02, -187500.02, -187500.02, -187500.02, -187500.02, -187500.02, 0.000, 0.000, 0.000, 02:41:04.728
95, 29718.54, 8277.79, -187500.02, -187500.02, -187500.02, -187500.02, -187500.02, -187500.02, 0.000, 0.000, 0.000, 02:41:04.728
96, 29729.90, 8258.50, -187500.02, -187500.02, -187500.02, -187500.02, -187500.02, -187500.02, 0.212, 0.990, -0.086, 02:41:04.728
97, 29721.87, 8221.35, -187500.02, -187500.02, -187500.02, -187500.02, -187500.02, -187500.02, 0.000, 0.000, 0.000, 02:41:04.728
98, 29725.43, 8217.60, -187500.02, -187500.02, -187500.02, -187500.02, -187500.02, -187500.02, 0.000, 0.000, 0.000, 02:41:04.728
99, 29744.61, 8268.38, -187500.02, -187500.02, -187500.02, -187500.02, -187500.02, -187500.02, 0.000, 0.000, 0.000, 02:41:04.728
100, 29742.71, 8288.32, -187500.02, -187500.02, -187500.02, -187500.02, -187500.02, -187500.02, 0.000, 0.000, 0.000, 02:41:04.728
101, 29716.62, 8262.28, -187500.02, -187500.02, -187500.02, -187500.02, -187500.02, -187500.02, 0.000, 0.000, 0.000, 02:41:04.728
102, 29695.23, 8234.56, -187500.02, -187500.02, -187500.02, -187500.02, -187500.02, -187500.02, 0.000, 0.000, 0.000, 02:41:04.729
103, 29717.45, 8223.30, -187500.02, -187500.02, -187500.02, -187500.02, -187500.02, -187500.02, 0.000, 0.000, 0.000, 02:41:04.729
104, 29733.25, 8230.83, -187500.02, -187500.02, -187500.02, -187500.02, -187500.02, -187500.02, 0.000, 0.000, 0.000, 02:41:04.729
105, 29728.56, 8247.88, -187500.02, -187500.02, -187500.02, -187500.02, -187500.02, -187500.02, 0.000, 0.000, 0.000, 02:41:04.729
106, 29704.37, 8245.85, -187500.02, -187500.02, -187500.02, -187500.02, -187500.02, -187500.02, 0.214, 0.990, -0.086, 02:41:04.729
107, 29717.36, 8243.64, -187500.02, -187500.02, -187500.02, -187500.02, -187500.02, -187500.02, 0.000, 0.000, 0.000, 02:41:04.729
108, 29732.94, 8253.76, -187500.02, -187500.02, -187500.02, -187500.02, -187500.02, -187500.02, 0.000, 0.000, 0.000, 02:41:04.729
109, 29724.76, 8249.56, -187500.02, -187500.02, -187500.02, -187500.02, -187500.02, -187500.02, 0.000, 0.000, 0.000, 02:41:04.729
110, 29706.21, 8254.88, -187500.02, -187500.02, -187500.02, -187500.02, -187500.02, -187500.02, 0.000, 0.000, 0.000, 02:41:04.729
111, 29702.65, 8240.31, -187500.02, -187500.02, -187500.02, -187500.02, -187500.02, -187500.02, 0.000, 0.000, 0.000, 02:41:04.729
112, 29728.45, 8247.46, -187500.02, -187500.02, -187500.02, -187500.02, -187500.02, -187500.02, 0.000, 0.000, 0.000, 02:41:04.730
113, 29737.23, 8240.01, -187500.02, -187500.02, -187500.02, -187500.02, -187500.02, -187500.02, 0.000, 0.000, 0.000, 02:41:04.730
114, 29717.96, 8237.85, -187500.02, -187500.02, -187500.02, -187500.02, -187500.02, -187500.02, 0.000, 0.000, 0.000, 02:41:04.730
115, 29706.90, 8242.27, -187500.02, -187500.02, -187500.02, -187500.02, -187500.02, -187500.02, 0.000, 0.000, 0.000, 02:41:04.730
116, 29736.65, 8240.93, -187500.02, -187500.02, -187500.02, -187500.02, -187500.02, -187500.02, 0.214, 0.990, -0.084, 02:41:04.730
117, 29739.80, 8259.28, -187500.02, -187500.02, -187500.02, -187500.02, -187500.02, -187500.02, 0.000, 0.000, 0.000, 02:41:04.730
118, 29721.81, 8299.31, -187500.02, -187500.02, -187500.02, -187500.02, -187500.02, -187500.02, 0.000, 0.000, 0.000, 02:41:04.730
119, 29695.83, 8263.46, -187500.02, -187500.02, -187500.02, -187500.02, -187500.02, -187500.02, 0.000, 0.000, 0.000, 02:41:04.730
120, 29724.04, 8265.81, -187500.02, -187500.02, -187500.02, -187500.02, -187500.02, -187500.02, 0.000, 0.000, 0.000, 02:41:04.731
121, 29742.21, 8315.09, -187500.02, -187500.02, -187500.02, -187500.02, -187500.02, -187500.02, 0.000, 0.000, 0.000, 02:41:05.187
122, 29747.89, 8294.75, -187500.02, -187500.02, -187500.02, -187500.02, -187500.02, -187500.02, 0.000, 0.000, 0.000, 02:41:05.187
123, 29723.79, 8285.50, -187500.02, -187500.02, -187500.02, -187500.02, -187500.02, -187500.02, 0.000, 0.000, 0.000, 02:41:05.188
124, 29734.39, 8284.54, -187500.02, -187500.02, -187500.02, -187500.02, -187500.02, -187500.02, 0.000, 0.000, 0.000, 02:41:05.188
125, 29751.33, 8304.28, -187500.02, -187500.02, -187500.02, -187500.02, -187500.02, -187500.02, 0.000, 0.000, 0.000, 02:41:05.188
126, 29740.47, 8293.82, -187500.02, -187500.02, -187500.02, -187500.02, -187500.02, -187500.02, 0.214, 0.996, -0.088, 02:41:05.188
127, 29716.08, 8269.81, -187500.02, -187500.02, -187500.02, -187500.02, -187500.02, -187500.02, 0.000, 0.000, 0.000, 02:41:05.188
128, 29740.02, 8300.19, -187500.02, -187500.02, -187500.02, -187500.02, -187500.02, -187500.02, 0.000, 0.000, 0.000, 02:41:05.188
129, 29766.89, 8310.24, -187500.02, -187500.02, -187500.02, -187500.02, -187500.02, -187500.02, 0.000, 0.000, 0.000, 02:41:05.188
130, 29759.31, 8320.82, -187500.02, -187500.02, -187500.02, -187500.02, -187500.02, -187500.02, 0.000, 0.000, 0.000, 02:41:05.188
131, 29729.27, 8297.97, -187500.02, -187500.02, -187500.02, -187500.02, -187500.02, -187500.02, 0.000, 0.000, 0.000, 02:41:05.189
132, 29740.38, 8275.55, -187500.02, -187500.02, -187500.02, -187500.02, -187500.02, -187500.02, 0.000, 0.000, 0.000, 02:41:05.189
133, 29757.41, 8295.11, -187500.02, -187500.02, -187500.02, -187500.02, -187500.02, -187500.02, 0.000, 0.000, 0.000, 02:41:05.189
134, 29757.99, 8308.32, -187500.02, -187500.02, -187500.02, -187500.02, -187500.02, -187500.02, 0.000, 0.000, 0.000, 02:41:05.189
135, 29742.30, 8292.52, -187500.02, -187500.02, -187500.02, -187500.02, -187500.02, -187500.02, 0.000, 0.000, 0.000, 02:41:05.189
136, 29731.62, 8305.42, -187500.02, -187500.02, -187500.02, -187500.02, -187500.02, -187500.02, 0.218, 0.988, -0.086, 02:41:05.189
137, 29745.95, 8336.89, -187500.02, -187500.02, -187500.02, -187500.02, -187500.02, -187500.02, 0.000, 0.000, 0.000, 02:41:05.189
138, 29733.47, 8317.04, -187500.02, -187500.02, -187500.02, -187500.02, -187500.02, -187500.02, 0.000, 0.000, 0.000, 02:41:05.189
139, 29721.65, 8315.32, -187500.02, -187500.02, -187500.02, -187500.02, -187500.02, -187500.02, 0.000, 0.000, 0.000, 02:41:05.190
140, 29721.45, 8287.00, -187500.02, -187500.02, -187500.02, -187500.02, -187500.02, -187500.02, 0.000, 0.000, 0.000, 02:41:05.190
141, 29754.15, 8298.78, -187500.02, -187500.02, -187500.02, -187500.02, -187500.02, -187500.02, 0.000, 0.000, 0.000, 02:41:05.190
142, 29760.14, 8310.92, -187500.02, -187500.02, -187500.02, -187500.02, -187500.02, -187500.02, 0.000, 0.000, 0.000, 02:41:05.190
143, 29734.88, 8318.69, -187500.02, -187500.02, -187500.02, -187500.02, -187500.02, -187500.02, 0.000, 0.000, 0.000, 02:41:05.190
144, 29721.09, 8282.33, -187500.02, -187500.02, -187500.02, -187500.02, -187500.02, -187500.02, 0.000, 0.000, 0.000, 02:41:05.190
145, 29753.63, 8294.24, -187500.02, -187500.02, -187500.02, -187500.02, -187500.02, -187500.02, 0.220, 0.996, -0.094, 02:41:05.190
146, 29765.57, 8331.81, -187500.02, -187500.02, -187500.02, -187500.02, -187500.02, -187500.02, 0.000, 0.000, 0.000, 02:41:05.191
147, 29744.67, 8309.64, -187500.02, -187500.02, -187500.02, -187500.02, -187500.02, -187500.02, 0.000, 0.000, 0.000, 02:41:05.191
148, 29724.22, 8296.65, -187500.02, -187500.02, -187500.02, -187500.02, -187500.02, -187500.02, 0.000, 0.000, 0.000, 02:41:05.191
149, 29746.57, 8310.58, -187500.02, -187500.02, -187500.02, -187500.02, -187500.02, -187500.02, 0.000, 0.000, 0.000, 02:41:05.191
150, 29757.26, 8329.96, -187500.02, -187500.02, -187500.02, -187500.02, -187500.02, -187500.02, 0.000, 0.000, 0.000, 02:41:05.191
151, 29741.19, 8342.43, -187500.02, -187500.02, -187500.02, -187500.02, -187500.02, -187500.02, 0.000, 0.000, 0.000, 02:41:05.191
152, 29726.08, 8316.06, -187500.02, -187500.02, -187500.02, -187500.02, -187500.02, -187500.02, 0.000, 0.000, 0.000, 02:41:05.191
153, 29738.08, 8310.36, -187500.02, -187500.02, -187500.02, -187500.02, -187500.02, -187500.02, 0.000, 0.000, 0.000, 02:41:05.191
154, 29758.96, 8326.20, -187500.02, -187500.02, -187500.02, -187500.02, -187500.02, -187500.02, 0.000, 0.000, 0.000, 02:41:05.191
155, 29751.38, 8320.73, -187500.02, -187500.02, -187500.02, -187500.02, -187500.02, -187500.02, 0.216, 0.994, -0.086, 02:41:05.191
156, 29731.75, 8334.90, -187500.02, -187500.02, -187500.02, -187500.02, -187500.02, -187500.02, 0.000, 0.000, 0.000, 02:41:05.191
157, 29737.68, 8314.56, -187500.02, -187500.02, -187500.02, -187500.02, -187500.02, -187500.02, 0.000, 0.000, 0.000, 02:41:05.192
158, 29754.57, 8327.54, -187500.02, -187500.02, -187500.02, -187500.02, -187500.02, -187500.02, 0.000, 0.000, 0.000, 02:41:05.192
159, 29755.96, 8328.66, -187500.02, -187500.02, -187500.02, -187500.02, -187500.02, -187500.02, 0.000, 0.000, 0.000, 02:41:05.192
160, 29729.74, 8331.03, -187500.02, -187500.02, -187500.02, -187500.02, -187500.02, -187500.02, 0.000, 0.000, 0.000, 02:41:05.192
161, 29726.61, 8308.68, -187500.02, -187500.02, -187500.02, -187500.02, -187500.02, -187500.02, 0.000, 0.000, 0.000, 02:41:05.192
162, 29759.96, 8300.41, -187500.02, -187500.02, -187500.02, -187500.02, -187500.02, -187500.02, 0.000, 0.000, 0.000, 02:41:05.192
163, 29753.97, 8326.99, -187500.02, -187500.02, -187500.02, -187500.02, -187500.02, -187500.02, 0.000, 0.000, 0.000, 02:41:05.192
164, 29729.76, 8309.73, -187500.02, -187500.02, -187500.02, -187500.02, -187500.02, -187500.02, 0.000, 0.000, 0.000, 02:41:05.192
165, 29715.73, 8289.01, -187500.02, -187500.02, -187500.02, -187500.02, -187500.02, -187500.02, 0.214, 0.994, -0.098, 02:41:05.193
166, 29759.85, 8329.35, -187500.02, -187500.02, -187500.02, -187500.02, -187500.02, -187500.02, 0.000, 0.000, 0.000, 02:41:05.193
167, 29761.93, 8341.87, -187500.02, -187500.02, -187500.02, -187500.02, -187500.02, -187500.02, 0.000, 0.000, 0.000, 02:41:05.193
168, 29734.46, 8326.00, -187500.02, -187500.02, -187500.02, -187500.02, -187500.02, -187500.02, 0.000, 0.000, 0.000, 02:41:05.193
169, 29712.60, 8321.64, -187500.02, -187500.02, -187500.02, -187500.02, -187500.02, -187500.02, 0.000, 0.000, 0.000, 02:41:05.193
170, 29745.77, 8307.00, -187500.02, -187500.02, -187500.02, -187500.02, -187500.02, -187500.02, 0.000, 0.000, 0.000, 02:41:05.193
171, 29761.06, 8318.83, -187500.02, -187500.02, -187500.02, -187500.02, -187500.02, -187500.02, 0.000, 0.000, 0.000, 02:41:05.194
172, 29741.01, 8318.04, -187500.02, -187500.02, -187500.02, -187500.02, -187500.02, -187500.02, 0.000, 0.000, 0.000, 02:41:05.194
173, 29714.61, 8293.44, -187500.02, -187500.02, -187500.02, -187500.02, -187500.02, -187500.02, 0.000, 0.000, 0.000, 02:41:05.194
174, 29733.76, 8291.58, -187500.02, -187500.02, -187500.02, -187500.02, -187500.02, -187500.02, 0.000, 0.000, 0.000, 02:41:05.194
175, 29743.51, 8327.32, -187500.02, -187500.02, -187500.02, -187500.02, -187500.02, -187500.02, 0.212, 0.992, -0.094, 02:41:05.194
176, 29731.46, 8327.12, -187500.02, -187500.02, -187500.02, -187500.02, -187500.02, -187500.02, 0.000, 0.000, 0.000, 02:41:05.194
177, 29720.33, 8304.19, -187500.02, -187500.02, -187500.02, -187500.02, -187500.02, -187500.02, 0.000, 0.000, 0.000, 02:41:05.194
178, 29745.63, 8280.38, -187500.02, -187500.02, -187500.02, -187500.02, -187500.02, -187500.02, 0.000, 0.000, 0.000, 02:41:05.194
179, 29771.09, 8319.12, -187500.02, -187500.02, -187500.02, -187500.02, -187500.02, -187500.02, 0.000, 0.000, 0.000, 02:41:05.194
180, 29773.44, 8322.02, -187500.02, -187500.02, -187500.02, -187500.02, -187500.02, -187500.02, 0.000, 0.000, 0.000, 02:41:05.195
181, 29738.79, 8326.11, -187500.02, -187500.02, -187500.02, -187500.02, -187500.02, -187500.02, 0.000, 0.000, 0.000, 02:41:05.195
182, 29731.91, 8307.38, -187500.02, -187500.02, -187500.02, -187500.02, -187500.02, -187500.02, 0.000, 0.000, 0.000, 02:41:05.195
183, 29758.91, 8292.90, -187500.02, -187500.02, -187500.02, -187500.02, -187500.02, -187500.02, 0.000, 0.000, 0.000, 02:41:05.195
184, 29759.58, 8309.26, -187500.02, -187500.02, -187500.02, -187500.02, -187500.02, -187500.02, 0.000, 0.000, 0.000, 02:41:05.195
185, 29734.90, 8323.07, -187500.02, -187500.02, -187500.02, -187500.02, -187500.02, -187500.02, 0.212, 0.998, -0.102, 02:41:05.195
186, 29717.31, 8311.00, -187500.02, -187500.02, -187500.02, -187500.02, -187500.02, -187500.02, 0.000, 0.000, 0.000, 02:41:05.195
187, 29734.99, 8313.82, -187500.02, -187500.02, -187500.02, -187500.02, -187500.02, -187500.02, 0.000, 0.000, 0.000, 02:41:05.195
188, 29733.16, 8321.24, -187500.02, -187500.02, -187500.02, -187500.02, -187500.02, -187500.02, 0.000, 0.000, 0.000, 02:41:05.195
189, 29728.60, 8296.81, -187500.02, -187500.02, -187500.02, -187500.02, -187500.02, -187500.02, 0.000, 0.000, 0.000, 02:41:05.195
190, 29710.68, 8285.48, -187500.02, -187500.02, -187500.02, -187500.02, -187500.02, -187500.02, 0.000, 0.000, 0.000, 02:41:05.196
191, 29734.44, 8310.36, -187500.02, -187500.02, -187500.02, -187500.02, -187500.02, -187500.02, 0.000, 0.000, 0.000, 02:41:05.196
192, 29750.62, 8318.31, -187500.02, -187500.02, -187500.02, -187500.02, -187500.02, -187500.02, 0.000, 0.000, 0.000, 02:41:05.196
193, 29744.27, 8299.85, -187500.02, -187500.02, -187500.02, -187500.02, -187500.02, -187500.02, 0.000, 0.000, 0.000, 02:41:05.196
194, 29724.78, 8280.40, -187500.02, -187500.02, -187500.02, -187500.02, -187500.02, -187500.02, 0.000, 0.000, 0.000, 02:41:05.196
195, 29735.37, 8283.69, -187500.02, -187500.02, -187500.02, -187500.02, -187500.02, -187500.02, 0.216, 0.996, -0.082, 02:41:05.196
196, 29750.64, 8315.97, -187500.02, -187500.02, -187500.02, -187500.02, -187500.02, -187500.02, 0.000, 0.000, 0.000, 02:41:05.196
197, 29742.62, 8334.74, -187500.02, -187500.02, -187500.02, -187500.02, -187500.02, -187500.02, 0.000, 0.000, 0.000, 02:41:05.196
198, 29711.41, 8327.54, -187500.02, -187500.02, -187500.02, -187500.02, -187500.02, -187500.02, 0.000, 0.000, 0.000, 02:41:05.196
199, 29741.25, 8285.88, -187500.02, -187500.02, -187500.02, -187500.02, -187500.02, -187500.02, 0.000, 0.000, 0.000, 02:41:05.197
200, 29745.70, 8318.78, -187500.02, -187500.02, -187500.02, -187500.02, -187500.02, -187500.02, 0.000, 0.000, 0.000, 02:41:05.197
201, 29730.01, 8309.06, -187500.02, -187500.02, -187500.02, -187500.02, -187500.02, -187500.02, 0.000, 0.000, 0.000, 02:41:05.197
202, 29709.11, 8278.48, -187500.02, -187500.02, -187500.02, -187500.02, -187500.02, -187500.02, 0.000, 0.000, 0.000, 02:41:05.197
203, 29707.30, 8281.23, -187500.02, -187500.02, -187500.02, -187500.02, -187500.02, -187500.02, 0.000, 0.000, 0.000, 02:41:05.197
204, 29740.96, 8290.84, -187500.02, -187500.02, -187500.02, -187500.02, -187500.02, -187500.02, 0.214, 1.000, -0.088, 02:41:05.197
205, 29750.21, 8320.68, -187500.02, -187500.02, -187500.02, -187500.02, -187500.02, -187500.02, 0.000, 0.000, 0.000, 02:41:05.197
206, 29726.72, 8300.01, -187500.02, -187500.02, -187500.02, -187500.02, -187500.02, -187500.02, 0.000, 0.000, 0.000, 02:41:05.197
207, 29713.16, 8273.25, -187500.02, -187500.02, -187500.02, -187500.02, -187500.02, -187500.02, 0.000, 0.000, 0.000, 02:41:05.198
208, 29748.07, 8301.95, -187500.02, -187500.02, -187500.02, -187500.02, -187500.02, -187500.02, 0.000, 0.000, 0.000, 02:41:05.198
209, 29738.62, 8326.52, -187500.02, -187500.02, -187500.02, -187500.02, -187500.02, -187500.02, 0.000, 0.000, 0.000, 02:41:05.198
210, 29709.16, 8293.70, -187500.02, -187500.02, -187500.02, -187500.02, -187500.02, -187500.02, 0.000, 0.000, 0.000, 02:41:05.198
211, 29698.00, 8289.64, -187500.02, -187500.02, -187500.02, -187500.02, -187500.02, -187500.02, 0.000, 0.000, 0.000, 02:41:05.198
212, 29723.37, 8310.80, -187500.02, -187500.02, -187500.02, -187500.02, -187500.02, -187500.02, 0.000, 0.000, 0.000, 02:41:05.198
213, 29734.32, 8311.67, -187500.02, -187500.02, -187500.02, -187500.02, -187500.02, -187500.02, 0.000, 0.000, 0.000, 02:41:05.198
214, 29718.19, 8304.37, -187500.02, -187500.02, -187500.02, -187500.02, -187500.02, -187500.02, 0.216, 0.992, -0.090, 02:41:05.198
215, 29709.69, 8275.91, -187500.02, -187500.02, -187500.02, -187500.02, -187500.02, -187500.02, 0.000, 0.000, 0.000, 02:41:05.199
216, 29728.27, 8287.65, -187500.02, -187500.02, -187500.02, -187500.02, -187500.02, -187500.02, 0.000, 0.000, 0.000, 02:41:05.199
217, 29732.89, 8275.64, -187500.02, -187500.02, -187500.02, -187500.02, -187500.02, -187500.02, 0.000, 0.000, 0.000, 02:41:05.199
218, 29732.00, 8285.05, -187500.02, -187500.02, -187500.02, -187500.02, -187500.02, -187500.02, 0.000, 0.000, 0.000, 02:41:05.199
219, 29712.73, 8304.99, -187500.02, -187500.02, -187500.02, -187500.02, -187500.02, -187500.02, 0.000, 0.000, 0.000, 02:41:05.199
220, 29720.26, 8281.23, -187500.02, -187500.02, -187500.02, -187500.02, -187500.02, -187500.02, 0.000, 0.000, 0.000, 02:41:05.199
221, 29738.48, 8287.16, -187500.02, -187500.02, -187500.02, -187500.02, -187500.02, -187500.02, 0.000, 0.000, 0.000, 02:41:05.199
222, 29723.88, 8288.88, -187500.02, -187500.02, -187500.02, -187500.02, -187500.02, -187500.02, 0.000, 0.000, 0.000, 02:41:05.200
223, 29697.38, 8276.90, -187500.02, -187500.02, -187500.02, -187500.02, -187500.02, -187500.02, 0.000, 0.000, 0.000, 02:41:05.200
224, 29714.65, 8271.80, -187500.02, -187500.02, -187500.02, -187500.02, -187500.02, -187500.02, 0.214, 0.994, -0.090, 02:41:05.200
225, 29745.79, 8313.55, -187500.02, -187500.02, -187500.02, -187500.02, -187500.02, -187500.02, 0.000, 0.000, 0.000, 02:41:05.200
226, 29739.78, 8321.29, -187500.02, -187500.02, -187500.02, -187500.02, -187500.02, -187500.02, 0.000, 0.000, 0.000, 02:41:05.200
227, 29719.75, 8305.26, -187500.02, -187500.02, -187500.02, -187500.02, -187500.02, -187500.02, 0.000, 0.000, 0.000, 02:41:05.200
228, 29720.17, 8278.48, -187500.02, -187500.02, -187500.02, -187500.02, -187500.02, -187500.02, 0.000, 0.000, 0.000, 02:41:05.201
229, 29739.84, 8263.51, -187500.02, -187500.02, -187500.02, -187500.02, -187500.02, -187500.02, 0.000, 0.000, 0.000, 02:41:05.201
230, 29733.83, 8292.65, -187500.02, -187500.02, -187500.02, -187500.02, -187500.02, -187500.02, 0.000, 0.000, 0.000, 02:41:05.201
231, 29722.92, 8288.21, -187500.02, -187500.02, -187500.02, -187500.02, -187500.02, -187500.02, 0.000, 0.000, 0.000, 02:41:05.201
232, 29703.37, 8282.62, -187500.02, -187500.02, -187500.02, -187500.02, -187500.02, -187500.02, 0.000, 0.000, 0.000, 02:41:05.201
233, 29736.18, 8281.61, -187500.02, -187500.02, -187500.02, -187500.02, -187500.02, -187500.02, 0.000, 0.000, 0.000, 02:41:05.201
234, 29748.61, 8271.75, -187500.02, -187500.02, -187500.02, -187500.02, -187500.02, -187500.02, 0.216, 0.988, -0.088, 02:41:05.201
235, 29726.01, 8284.70, -187500.02, -187500.02, -187500.02, -187500.02, -187500.02, -187500.02, 0.000, 0.000, 0.000, 02:41:05.202
236, 29712.82, 8265.54, -187500.02, -187500.02, -187500.02, -187500.02, -187500.02, -187500.02, 0.000, 0.000, 0.000, 02:41:05.202
237, 29738.86, 8276.54, -187500.02, -187500.02, -187500.02, -187500.02, -187500.02, -187500.02, 0.000, 0.000, 0.000, 02:41:05.202
238, 29748.47, 8293.37, -187500.02, -187500.02, -187500.02, -187500.02, -187500.02, -187500.02, 0.000, 0.000, 0.000, 02:41:05.202
239, 29730.93, 8315.32, -187500.02, -187500.02, -187500.02, -187500.02, -187500.02, -187500.02, 0.000, 0.000, 0.000, 02:41:05.202
240, 29710.56, 8283.00, -187500.02, -187500.02, -187500.02, -187500.02, -187500.02, -187500.02, 0.000, 0.000, 0.000, 02:41:05.202
241, 29737.05, 8306.53, -187500.02, -187500.02, -187500.02, -187500.02, -187500.02, -187500.02, 0.000, 0.000, 0.000, 02:41:05.669
242, 29745.12, 8325.69, -187500.02, -187500.02, -187500.02, -187500.02, -187500.02, -187500.02, 0.000, 0.000, 0.000, 02:41:05.669
243, 29728.24, 8304.83, -187500.02, -187500.02, -187500.02, -187500.02, -187500.02, -187500.02, 0.000, 0.000, 0.000, 02:41:05.669
244, 29698.40, 8275.26, -187500.02, -187500.02, -187500.02, -187500.02, -187500.02, -187500.02, 0.216, 0.992, -0.090, 02:41:05.670
245, 29727.33, 8261.61, -187500.02, -187500.02, -187500.02, -187500.02, -187500.02, -187500.02, 0.000, 0.000, 0.000, 02:41:05.670
246, 29762.80, 8282.28, -187500.02, -187500.02, -187500.02, -187500.02, -187500.02, -187500.02, 0.000, 0.000, 0.000, 02:41:05.670
247, 29754.08, 8273.01, -187500.02, -187500.02, -187500.02, -187500.02, -187500.02, -187500.02, 0.000, 0.000, 0.000, 02:41:05.670
248, 29716.29, 8292.63, -187500.02, -187500.02, -187500.02, -187500.02, -187500.02, -187500.02, 0.000, 0.000, 0.000, 02:41:05.670
249, 29730.01, 8283.82, -187500.02, -187500.02, -187500.02, -187500.02, -187500.02, -187500.02, 0.000, 0.000, 0.000, 02:41:05.671
250, 29748.07, 8307.23, -187500.02, -187500.02, -187500.02, -187500.02, -187500.02, -187500.02, 0.000, 0.000, 0.000, 02:41:05.671
251, 29745.23, 8270.79, -187500.02, -187500.02, -187500.02, -187500.02, -187500.02, -187500.02, 0.000, 0.000, 0.000, 02:41:05.671
252, 29730.03, 8288.21, -187500.02, -187500.02, -187500.02, -187500.02, -187500.02, -187500.02, 0.000, 0.000, 0.000, 02:41:05.672
253, 29722.59, 8268.04, -187500.02, -187500.02, -187500.02, -187500.02, -187500.02, -187500.02, 0.000, 0.000, 0.000, 02:41:05.672
254, 29739.33, 8290.60, -187500.02, -187500.02, -187500.02, -187500.02, -187500.02, -187500.02, 0.214, 0.988, -0.084, 02:41:05.672
255, 29737.23, 8303.65, -187500.02, -187500.02, -187500.02, -187500.02, -187500.02, -187500.02, 0.000, 0.000, 0.000, 02:41:05.672
0, 29724.53, 8295.76, -187500.02, -187500.02, -187500.02, -187500.02, -187500.02, -187500.02, 0.000, 0.000, 0.000, 02:41:05.672
1, 29718.07, 8279.38, -187500.02, -187500.02, -187500.02, -187500.02, -187500.02, -187500.02, 0.000, 0.000, 0.000, 02:41:05.673
2, 29738.97, 8290.31, -187500.02, -187500.02, -187500.02, -187500.02, -187500.02, -187500.02, 0.000, 0.000, 0.000, 02:41:05.673
3, 29734.08, 8289.37, -187500.02, -187500.02, -187500.02, -187500.02, -187500.02, -187500.02, 0.000, 0.000, 0.000, 02:41:05.673
4, 29707.66, 8292.38, -187500.02, -187500.02, -187500.02, -187500.02, -187500.02, -187500.02, 0.000, 0.000, 0.000, 02:41:05.673
5, 29725.76, 8219.32, -187500.02, -187500.02, -187500.02, -187500.02, -187500.02, -187500.02, 0.000, 0.000, 0.000, 02:41:05.673
6, 29771.09, 8258.28, -187500.02, -187500.02, -187500.02, -187500.02, -187500.02, -187500.02, 0.000, 0.000, 0.000, 02:41:05.673
7, 29773.39, 8308.75, -187500.02, -187500.02, -187500.02, -187500.02, -187500.02, -187500.02, 0.216, 0.986, -0.090, 02:41:05.674
8, 29744.67, 8300.79, -187500.02, -187500.02, -187500.02, -187500.02, -187500.02, -187500.02, 0.000, 0.000, 0.000, 02:41:05.674
9, 29718.01, 8250.41, -187500.02, -187500.02, -187500.02, -187500.02, -187500.02, -187500.02, 0.000, 0.000, 0.000, 02:41:05.674
10, 29736.38, 8271.33, -187500.02, -187500.02, -187500.02, -187500.02, -187500.02, -187500.02, 0.000, 0.000, 0.000, 02:41:05.674
11, 29746.26, 8289.68, -187500.02, -187500.02, -187500.02, -187500.02, -187500.02, -187500.02, 0.000, 0.000, 0.000, 02:41:05.674
12, 29737.70, 8282.73, -187500.02, -187500.02, -187500.02, -187500.02, -187500.02, -187500.02, 0.000, 0.000, 0.000, 02:41:05.674
13, 29707.52, 8280.34, -187500.02, -187500.02, -187500.02, -187500.02, -187500.02, -187500.02, 0.000, 0.000, 0.000, 02:41:05.675
14, 29733.59, 8282.75, -187500.02, -187500.02, -187500.02, -187500.02, -187500.02, -187500.02, 0.000, 0.000, 0.000, 02:41:05.675
15, 29745.16, 8300.92, -187500.02, -187500.02, -187500.02, -187500.02, -187500.02, -187500.02, 0.000, 0.000, 0.000, 02:41:05.675
16, 29737.88, 8279.82, -187500.02, -187500.02, -187500.02, -187500.02, -187500.02, -187500.02, 0.000, 0.000, 0.000, 02:41:05.675
17, 29715.39, 8267.44, -187500.02, -187500.02, -187500.02, -187500.02, -187500.02, -187500.02, 0.216, 0.990, -0.094, 02:41:05.675
18, 29741.25, 8255.86, -187500.02, -187500.02, -187500.02, -187500.02, -187500.02, -187500.02, 0.000, 0.000, 0.000, 02:41:05.675
19, 29760.79, 8295.58, -187500.02, -187500.02, -187500.02, -187500.02, -187500.02, -187500.02, 0.000, 0.000, 0.000, 02:41:05.676
20, 29745.43, 8285.75, -187500.02, -187500.02, -187500.02, -187500.02, -187500.02, -187500.02, 0.000, 0.000, 0.000, 02:41:05.676
21, 29709.60, 8264.29, -187500.02, -187500.02, -187500.02, -187500.02, -187500.02, -187500.02, 0.000, 0.000, 0.000, 02:41:05.676
22, 29711.53, 8249.20, -187500.02, -187500.02, -187500.02, -187500.02, -187500.02, -187500.02, 0.000, 0.000, 0.000, 02:41:05.676
23, 29740.83, 8255.37, -187500.02, -187500.02, -187500.02, -187500.02, -187500.02, -187500.02, 0.000, 0.000, 0.000, 02:41:05.676
24, 29741.07, 8283.78, -187500.02, -187500.02, -187500.02, -187500.02, -187500.02, -187500.02, 0.000, 0.000, 0.000, 02:41:05.676
25, 29725.72, 8263.44, -187500.02, -187500.02, -187500.02, -187500.02, -187500.02, -187500.02, 0.000, 0.000, 0.000, 02:41:05.677
26, 29714.14, 8276.76, -187500.02, -187500.02, -187500.02, -187500.02, -187500.02, -187500.02, 0.000, 0.000, 0.000, 02:41:05.677
27, 29740.43, 8306.74, -187500.02, -187500.02, -187500.02, -187500.02, -187500.02, -187500.02, 0.214, 0.990, -0.092, 02:41:05.677
28, 29747.64, 8301.42, -187500.02, -187500.02, -187500.02, -187500.02, -187500.02, -187500.02, 0.000, 0.000, 0.000, 02:41:05.677
29, 29727.46, 8274.97, -187500.02, -187500.02, -187500.02, -187500.02, -187500.02, -187500.02, 0.000, 0.000, 0.000, 02:41:05.677
30, 29711.93, 8240.60, -187500.02, -187500.02, -187500.02, -187500.02, -187500.02, -187500.02, 0.000, 0.000, 0.000, 02:41:05.677
31, 29744.67, 8266.48, -187500.02, -187500.02, -187500.02, -187500.02, -187500.02, -187500.02, 0.000, 0.000, 0.000, 02:41:05.678
32, 29746.33, 8287.09, -187500.02, -187500.02, -187500.02, -187500.02, -187500.02, -187500.02, 0.000, 0.000, 0.000, 02:41:05.678
33, 29720.78, 8280.45, -187500.02, -187500.02, -187500.02, -187500.02, -187500.02, -187500.02, 0.000, 0.000, 0.000, 02:41:05.678
34, 29708.78, 8246.09, -187500.02, -187500.02, -187500.02, -187500.02, -187500.02, -187500.02, 0.000, 0.000, 0.000, 02:41:05.678
35, 29740.63, 8273.41, -187500.02, -187500.02, -187500.02, -187500.02, -187500.02, -187500.02, 0.000, 0.000, 0.000, 02:41:05.679
36, 29750.64, 8293.12, -187500.02, -187500.02, -187500.02, -187500.02, -187500.02, -187500.02, 0.000, 0.000, 0.000, 02:41:05.679
37, 29733.74, 8260.51, -187500.02, -187500.02, -187500.02, -187500.02, -187500.02, -187500.02, 0.210, 0.986, -0.096, 02:41:05.679
38, 29718.05, 8273.36, -187500.02, -187500.02, -187500.02, -187500.02, -187500.02, -187500.02, 0.000, 0.000, 0.000, 02:41:05.679
39, 29731.89, 8256.02, -187500.02, -187500.02, -187500.02, -187500.02, -187500.02, -187500.02, 0.000, 0.000, 0.000, 02:41:05.679
40, 29757.93, 8282.91, -187500.02, -187500.02, -187500.02, -187500.02, -187500.02, -187500.02, 0.000, 0.000, 0.000, 02:41:05.680
41, 29737.38, 8300.12, -187500.02, -187500.02, -187500.02, -187500.02, -187500.02, -187500.02, 0.000, 0.000, 0.000, 02:41:05.680
42, 29716.17, 8262.81, -187500.02, -187500.02, -187500.02, -187500.02, -187500.02, -187500.02, 0.000, 0.000, 0.000, 02:41:05.680
43, 29726.32, 8264.78, -187500.02, -187500.02, -187500.02, -187500.02, -187500.02, -187500.02, 0.000, 0.000, 0.000, 02:41:05.680
44, 29753.86, 8269.79, -187500.02, -187500.02, -187500.02, -187500.02, -187500.02, -187500.02, 0.000, 0.000, 0.000, 02:41:05.681
45, 29746.08, 8285.77, -187500.02, -187500.02, -187500.02, -187500.02, -187500.02, -187500.02, 0.000, 0.000, 0.000, 02:41:05.681
46, 29719.62, 8275.98, -187500.02, -187500.02, -187500.02, -187500.02, -187500.02, -187500.02, 0.000, 0.000, 0.000, 02:41:05.681
47, 29712.35, 8270.64, -187500.02, -187500.02, -187500.02, -187500.02, -187500.02, -187500.02, 0.214, 0.994, -0.098, 02:41:05.681
48, 29749.46, 8283.24, -187500.02, -187500.02, -187500.02, -187500.02, -187500.02, -187500.02, 0.000, 0.000, 0.000, 02:41:05.681
49, 29747.67, 8276.36, -187500.02, -187500.02, -187500.02, -187500.02, -187500.02, -187500.02, 0.000, 0.000, 0.000, 02:41:05.681
50, 29726.75, 8273.27, -187500.02, -187500.02, -187500.02, -187500.02, -187500.02, -187500.02, 0.000, 0.000, 0.000, 02:41:05.682
51, 29721.00, 8258.81, -187500.02, -187500.02, -187500.02, -187500.02, -187500.02, -187500.02, 0.000, 0.000, 0.000, 02:41:05.682
52, 29747.22, 8248.96, -187500.02, -187500.02, -187500.02, -187500.02, -187500.02, -187500.02, 0.000, 0.000, 0.000, 02:41:05.682
53, 29749.48, 8264.27, -187500.02, -187500.02, -187500.02, -187500.02, -187500.02, -187500.02, 0.000, 0.000, 0.000, 02:41:05.682
54, 29733.50, 8286.73, -187500.02, -187500.02, -187500.02, -187500.02, -187500.02, -187500.02, 0.000, 0.000, 0.000, 02:41:05.682
55, 29714.72, 8243.08, -187500.02, -187500.02, -187500.02, -187500.02, -187500.02, -187500.02, 0.000, 0.000, 0.000, 02:41:05.682
56, 29734.68, 8220.50, -187500.02, -187500.02, -187500.02, -187500.02, -187500.02, -187500.02, 0.000, 0.000, 0.000, 02:41:05.683
57, 29733.07, 8278.93, -187500.02, -187500.02, -187500.02, -187500.02, -187500.02, -187500.02, 0.222, 0.996, -0.092, 02:41:05.683
58, 29730.86, 8286.15, -187500.02, -187500.02, -187500.02, -187500.02, -187500.02, -187500.02, 0.000, 0.000, 0.000, 02:41:05.683
59, 29720.09, 8254.39, -187500.02, -187500.02, -187500.02, -187500.02, -187500.02, -187500.02, 0.000, 0.000, 0.000, 02:41:05.683
60, 29736.07, 8270.26, -187500.02, -187500.02, -187500.02, -187500.02, -187500.02, -187500.02, 0.000, 0.000, 0.000, 02:41:05.683
61, 29754.69, 8267.37, -187500.02, -187500.02, -187500.02, -187500.02, -187500.02, -187500.02, 0.000, 0.000, 0.000, 02:41:05.684
62, 29743.40, 8279.15, -187500.02, -187500.02, -187500.02, -187500.02, -187500.02, -187500.02, 0.000, 0.000, 0.000, 02:41:05.684
63, 29723.97, 8248.96, -187500.02, -187500.02, -187500.02, -187500.02, -187500.02, -187500.02, 0.000, 0.000, 0.000, 02:41:05.684
64, 29745.32, 8233.64, -187500.02, -187500.02, -187500.02, -187500.02, -187500.02, -187500.02, 0.000, 0.000, 0.000, 02:41:05.684
65, 29764.03, 8281.32, -187500.02, -187500.02, -187500.02, -187500.02, -187500.02, -187500.02, 0.000, 0.000, 0.000, 02:41:05.684
66, 29756.07, 8272.67, -187500.02, -187500.02, -187500.02, -187500.02, -187500.02, -187500.02, 0.000, 0.000, 0.000, 02:41:05.684
67, 29729.34, 8267.82, -187500.02, -187500.02, -187500.02, -187500.02, -187500.02, -187500.02, 0.220, 0.986, -0.082, 02:41:05.684
68, 29737.03, 8257.90, -187500.02, -187500.02, -187500.02, -187500.02, -187500.02, -187500.02, 0.000, 0.000, 0.000, 02:41:05.685
69, 29756.03, 8284.00, -187500.02, -187500.02, -187500.02, -187500.02, -187500.02, -187500.02, 0.000, 0.000, 0.000, 02:41:05.685
70, 29761.62, 8260.06, -187500.02, -187500.02, -187500.02, -187500.02, -187500.02, -187500.02, 0.000, 0.000, 0.000, 02:41:05.685
71, 29726.32, 8266.86, -187500.02, -187500.02, -187500.02, -187500.02, -187500.02, -187500.02, 0.000, 0.000, 0.000, 02:41:05.685
72, 29728.62, 8247.15, -187500.02, -187500.02, -187500.02, -187500.02, -187500.02, -187500.02, 0.000, 0.000, 0.000, 02:41:05.685
73, 29756.65, 8265.21, -187500.02, -187500.02, -187500.02, -187500.02, -187500.02, -187500.02, 0.000, 0.000, 0.000, 02:41:05.685
74, 29754.95, 8254.90, -187500.02, -187500.02, -187500.02, -187500.02, -187500.02, -187500.02, 0.000, 0.000, 0.000, 02:41:05.685
75, 29737.56, 8259.01, -187500.02, -187500.02, -187500.02, -187500.02, -187500.02, -187500.02, 0.000, 0.000, 0.000, 02:41:05.686
76, 29718.14, 8250.54, -187500.02, -187500.02, -187500.02, -187500.02, -187500.02, -187500.02, 0.212, 0.992, -0.084, 02:41:05.686
77, 29756.56, 8246.70, -187500.02, -187500.02, -187500.02, -187500.02, -187500.02, -187500.02, 0.000, 0.000, 0.000, 02:41:05.686
78, 29759.83, 8243.93, -187500.02, -187500.02, -187500.02, -187500.02, -187500.02, -187500.02, 0.000, 0.000, 0.000, 02:41:05.686
79, 29739.02, 8268.04, -187500.02, -187500.02, -187500.02, -187500.02, -187500.02, -187500.02, 0.000, 0.000, 0.000, 02:41:05.686
80, 29724.53, 8221.28, -187500.02, -187500.02, -187500.02, -187500.02, -187500.02, -187500.02, 0.000, 0.000, 0.000, 02:41:05.686
81, 29748.96, 8239.81, -187500.02, -187500.02, -187500.02, -187500.02, -187500.02, -187500.02, 0.000, 0.000, 0.000, 02:41:05.686
82, 29761.17, 8269.56, -187500.02, -187500.02, -187500.02, -187500.02, -187500.02, -187500.02, 0.000, 0.000, 0.000, 02:41:05.686
83, 29738.71, 8273.32, -187500.02, -187500.02, -187500.02, -187500.02, -187500.02, -187500.02, 0.000, 0.000, 0.000, 02:41:05.687
84, 29715.93, 8233.15, -187500.02, -187500.02, -187500.02, -187500.02, -187500.02, -187500.02, 0.000, 0.000, 0.000, 02:41:05.687
85, 29738.53, 8234.14, -187500.02, -187500.02, -187500.02, -187500.02, -187500.02, -187500.02, 0.000, 0.000, 0.000, 02:41:05.687
86, 29756.07, 8260.44, -187500.02, -187500.02, -187500.02, -187500.02, -187500.02, -187500.02, 0.216, 0.992, -0.090, 02:41:05.687
87, 29746.57, 8270.08, -187500.02, -187500.02, -187500.02, -187500.02, -187500.02, -187500.02, 0.000, 0.000, 0.000, 02:41:05.687
88, 29727.80, 8247.91, -187500.02, -187500.02, -187500.02, -187500.02, -187500.02, -187500.02, 0.000, 0.000, 0.000, 02:41:05.687
89, 29731.62, 8252.44, -187500.02, -187500.02, -187500.02, -187500.02, -187500.02, -187500.02, 0.000, 0.000, 0.000, 02:41:05.687
90, 29756.65, 8247.55, -187500.02, -187500.02, -187500.02, -187500.02, -187500.02, -187500.02, 0.000, 0.000, 0.000, 02:41:05.688
91, 29735.66, 8247.26, -187500.02, -187500.02, -187500.02, -187500.02, -187500.02, -187500.02, 0.000, 0.000, 0.000, 02:41:05.688
92, 29708.69, 8217.98, -187500.02, -187500.02, -187500.02, -187500.02, -187500.02, -187500.02, 0.000, 0.000, 0.000, 02:41:05.688
93, 29716.62, 8197.88, -187500.02, -187500.02, -187500.02, -187500.02, -187500.02, -187500.02, 0.000, 0.000, 0.000, 02:41:05.688
94, 29730.63, 8282.57, -187500.02, -187500.02, -187500.02, -187500.02, -187500.02, -187500.02, 0.000, 0.000, 0.000, 02:41:05.688
95, 29750.35, 8282.59, -187500.02, -187500.02, -187500.02, -187500.02, -187500.02, -187500.02, 0.000, 0.000, 0.000, 02:41:05.688
96, 29749.88, 8241.29, -187500.02, -187500.02, -187500.02, -187500.02, -187500.02, -187500.02, 0.218, 0.988, -0.086, 02:41:05.688
97, 29739.17, 8226.34, -187500.02, -187500.02, -187500.02, -187500.02, -187500.02, -187500.02, 0.000, 0.000, 0.000, 02:41:05.689
98, 29758.37, 8247.55, -187500.02, -187500.02, -187500.02, -187500.02, -187500.02, -187500.02, 0.000, 0.000, 0.000, 02:41:05.689
99, 29760.45, 8276.02, -187500.02, -187500.02, -187500.02, -187500.02, -187500.02, -187500.02, 0.000, 0.000, 0.000, 02:41:05.689
100, 29741.86, 8288.25, -187500.02, -187500.02, -187500.02, -187500.02, -187500.02, -187500.02, 0.000, 0.000, 0.000, 02:41:05.689
101, 29725.65, 8272.18, -187500.02, -187500.02, -187500.02, -187500.02, -187500.02, -187500.02, 0.000, 0.000, 0.000, 02:41:05.689
102, 29757.30, 8275.69, -187500.02, -187500.02, -187500.02, -187500.02, -187500.02, -187500.02, 0.000, 0.000, 0.000, 02:41:05.689
103, 29772.70, 8267.84, -187500.02, -187500.02, -187500.02, -187500.02, -187500.02, -187500.02, 0.000, 0.000, 0.000, 02:41:05.689
104, 29758.44, 8279.00, -187500.02, -187500.02, -187500.02, -187500.02, -187500.02, -187500.02, 0.000, 0.000, 0.000, 02:41:05.690
105, 29738.53, 8270.77, -187500.02, -187500.02, -187500.02, -187500.02, -187500.02, -187500.02, 0.000, 0.000, 0.000, 02:41:05.690
106, 29750.06, 8317.33, -187500.02, -187500.02, -187500.02, -187500.02, -187500.02, -187500.02, 0.216, 0.996, -0.094, 02:41:06.149
107, 29764.90, 8304.25, -187500.02, -187500.02, -187500.02, -187500.02, -187500.02, -187500.02, 0.000, 0.000, 0.000, 02:41:06.149
108, 29751.11, 8316.15, -187500.02, -187500.02, -187500.02, -187500.02, -187500.02, -187500.02, 0.000, 0.000, 0.000, 02:41:06.149
109, 29734.32, 8282.42, -187500.02, -187500.02, -187500.02, -187500.02, -187500.02, -187500.02, 0.000, 0.000, 0.000, 02:41:06.149
110, 29753.21, 8281.34, -187500.02, -187500.02, -187500.02, -187500.02, -187500.02, -187500.02, 0.000, 0.000, 0.000, 02:41:06.149
111, 29759.96, 8313.80, -187500.02, -187500.02, -187500.02, -187500.02, -187500.02, -187500.02, 0.000, 0.000, 0.000, 02:41:06.150
112, 29765.93, 8299.11, -187500.02, -187500.02, -187500.02, -187500.02, -187500.02, -187500.02, 0.000, 0.000, 0.000, 02:41:06.150
113, 29740.72, 8286.37, -187500.02, -187500.02, -187500.02, -187500.02, -187500.02, -187500.02, 0.000, 0.000, 0.000, 02:41:06.150
114, 29749.41, 8300.61, -187500.02, -187500.02, -187500.02, -187500.02, -187500.02, -187500.02, 0.000, 0.000, 0.000, 02:41:06.150
115, 29766.35, 8300.50, -187500.02, -187500.02, -187500.02, -187500.02, -187500.02, -187500.02, 0.000, 0.000, 0.000, 02:41:06.150
116, 29766.64, 8285.48, -187500.02, -187500.02, -187500.02, -187500.02, -187500.02, -187500.02, 0.214, 0.992, -0.096, 02:41:06.150
117, 29739.73, 8323.21, -187500.02, -187500.02, -187500.02, -187500.02, -187500.02, -187500.02, 0.000, 0.000, 0.000, 02:41:06.151
118, 29741.32, 8309.95, -187500.02, -187500.02, -187500.02, -187500.02, -187500.02, -187500.02, 0.000, 0.000, 0.000, 02:41:06.151
119, 29768.77, 8302.22, -187500.02, -187500.02, -187500.02, -187500.02, -187500.02, -187500.02, 0.000, 0.000, 0.000, 02:41:06.151
120, 29755.56, 8281.50, -187500.02, -187500.02, -187500.02, -187500.02, -187500.02, -187500.02, 0.000, 0.000, 0.000, 02:41:06.151
121, 29741.86, 8308.28, -187500.02, -187500.02, -187500.02, -187500.02, -187500.02, -187500.02, 0.000, 0.000, 0.000, 02:41:06.151
122, 29726.43, 8318.83, -187500.02, -187500.02, -187500.02, -187500.02, -187500.02, -187500.02, 0.000, 0.000, 0.000, 02:41:06.152
123, 29760.18, 8307.38, -187500.02, -187500.02, -187500.02, -187500.02, -187500.02, -187500.02, 0.000, 0.000, 0.000, 02:41:06.152
124, 29778.58, 8294.53, -187500.02, -187500.02, -187500.02, -187500.02, -187500.02, -187500.02, 0.000, 0.000, 0.000, 02:41:06.152
125, 29759.85, 8302.53, -187500.02, -187500.02, -187500.02, -187500.02, -187500.02, -187500.02, 0.000, 0.000, 0.000, 02:41:06.152
126, 29744.78, 8282.28, -187500.02, -187500.02, -187500.02, -187500.02, -187500.02, -187500.02, 0.212, 0.994, -0.088, 02:41:06.152
127, 29763.43, 8317.60, -187500.02, -187500.02, -187500.02, -187500.02, -187500.02, -187500.02, 0.000, 0.000, 0.000, 02:41:06.152
128, 29776.30, 8327.10, -187500.02, -187500.02, -187500.02, -187500.02, -187500.02, -187500.02, 0.000, 0.000, 0.000, 02:41:06.152
129, 29768.77, 8301.91, -187500.02, -187500.02, -187500.02, -187500.02, -187500.02, -187500.02, 0.000, 0.000, 0.000, 02:41:06.152
130, 29735.17, 8300.57, -187500.02, -187500.02, -187500.02, -187500.02, -187500.02, -187500.02, 0.000, 0.000, 0.000, 02:41:06.152
131, 29760.65, 8291.83, -187500.02, -187500.02, -187500.02, -187500.02, -187500.02, -187500.02, 0.000, 0.000, 0.000, 02:41:06.152
132, 29767.94, 8316.35, -187500.02, -187500.02, -187500.02, -187500.02, -187500.02, -187500.02, 0.000, 0.000, 0.000, 02:41:06.153
133, 29752.50, 8307.32, -187500.02, -187500.02, -187500.02, -187500.02, -187500.02, -187500.02, 0.000, 0.000, 0.000, 02:41:06.153
134, 29732.29, 8283.11, -187500.02, -187500.02, -187500.02, -187500.02, -187500.02, -187500.02, 0.000, 0.000, 0.000, 02:41:06.153
135, 29736.51, 8279.11, -187500.02, -187500.02, -187500.02, -187500.02, -187500.02, -187500.02, 0.208, 0.990, -0.094, 02:41:06.153
136, 29756.12, 8285.52, -187500.02, -187500.02, -187500.02, -187500.02, -187500.02, -187500.02, 0.000, 0.000, 0.000, 02:41:06.153
137, 29769.28, 8344.33, -187500.02, -187500.02, -187500.02, -187500.02, -187500.02, -187500.02, 0.000, 0.000, 0.000, 02:41:06.153
138, 29740.60, 8330.65, -187500.02, -187500.02, -187500.02, -187500.02, -187500.02, -187500.02, 0.000, 0.000, 0.000, 02:41:06.153
139, 29742.50, 8316.15, -187500.02, -187500.02, -187500.02, -187500.02, -187500.02, -187500.02, 0.000, 0.000, 0.000, 02:41:06.154
140, 29782.11, 8308.43, -187500.02, -187500.02, -187500.02, -187500.02, -187500.02, -187500.02, 0.000, 0.000, 0.000, 02:41:06.154
141, 29761.44, 8342.21, -187500.02, -187500.02, -187500.02, -187500.02, -187500.02, -187500.02, 0.000, 0.000, 0.000, 02:41:06.154
142, 29725.88, 8305.35, -187500.02, -187500.02, -187500.02, -187500.02, -187500.02, -187500.02, 0.000, 0.000, 0.000, 02:41:06.154
143, 29736.18, 8278.37, -187500.02, -187500.02, -187500.02, -187500.02, -187500.02, -187500.02, 0.000, 0.000, 0.000, 02:41:06.154
144, 29760.99, 8321.20, -187500.02, -187500.02, -187500.02, -187500.02, -187500.02, -187500.02, 0.000, 0.000, 0.000, 02:41:06.154
145, 29761.62, 8331.70, -187500.02, -187500.02, -187500.02, -187500.02, -187500.02, -187500.02, 0.214, 0.994, -0.092, 02:41:06.155
146, 29744.58, 8307.23, -187500.02, -187500.02, -187500.02, -187500.02, -187500.02, -187500.02, 0.000, 0.000, 0.000, 02:41:06.155
147, 29742.48, 8287.78, -187500.02, -187500.02, -187500.02, -187500.02, -187500.02, -187500.02, 0.000, 0.000, 0.000, 02:41:06.155
148, 29779.25, 8336.35, -187500.02, -187500.02, -187500.02, -187500.02, -187500.02, -187500.02, 0.000, 0.000, 0.000, 02:41:06.155
149, 29765.59, 8316.30, -187500.02, -187500.02, -187500.02, -187500.02, -187500.02, -187500.02, 0.000, 0.000, 0.000, 02:41:06.155
150, 29746.46, 8268.42, -187500.02, -187500.02, -187500.02, -187500.02, -187500.02, -187500.02, 0.000, 0.000, 0.000, 02:41:06.155
151, 29718.32, 8291.07, -187500.02, -187500.02, -187500.02, -187500.02, -187500.02, -187500.02, 0.000, 0.000, 0.000, 02:41:06.155
152, 29748.56, 8340.91, -187500.02, -187500.02, -187500.02, -187500.02, -187500.02, -187500.02, 0.000, 0.000, 0.000, 02:41:06.155
153, 29761.21, 8336.78, -187500.02, -187500.02, -187500.02, -187500.02, -187500.02, -187500.02, 0.000, 0.000, 0.000, 02:41:06.155
154, 29759.58, 8318.94, -187500.02, -187500.02, -187500.02, -187500.02, -187500.02, -187500.02, 0.000, 0.000, 0.000, 02:41:06.156
155, 29727.57, 8318.40, -187500.02, -187500.02, -187500.02, -187500.02, -187500.02, -187500.02, 0.214, 0.990, -0.090, 02:41:06.156
156, 29752.03, 8303.83, -187500.02, -187500.02, -187500.02, -187500.02, -187500.02, -187500.02, 0.000, 0.000, 0.000, 02:41:06.156
157, 29754.44, 8297.17, -187500.02, -187500.02, -187500.02, -187500.02, -187500.02, -187500.02, 0.000, 0.000, 0.000, 02:41:06.156
158, 29747.82, 8291.92, -187500.02, -187500.02, -187500.02, -187500.02, -187500.02, -187500.02, 0.000, 0.000, 0.000, 02:41:06.156
159, 29718.63, 8301.30, -187500.02, -187500.02, -187500.02, -187500.02, -187500.02, -187500.02, 0.000, 0.000, 0.000, 02:41:06.156
160, 29730.97, 8300.97, -187500.02, -187500.02, -187500.02, -187500.02, -187500.02, -187500.02, 0.000, 0.000, 0.000, 02:41:06.156
161, 29764.12, 8284.34, -187500.02, -187500.02, -187500.02, -187500.02, -187500.02, -187500.02, 0.000, 0.000, 0.000, 02:41:06.156
162, 29759.63, 8298.96, -187500.02, -187500.02, -187500.02, -187500.02, -187500.02, -187500.02, 0.000, 0.000, 0.000, 02:41:06.156
163, 29751.40, 8293.70, -187500.02, -187500.02, -187500.02, -187500.02, -187500.02, -187500.02, 0.000, 0.000, 0.000, 02:41:06.157
164, 29739.49, 8290.66, -187500.02, -187500.02, -187500.02, -187500.02, -187500.02, -187500.02, 0.000, 0.000, 0.000, 02:41:06.157
165, 29764.86, 8302.06, -187500.02, -187500.02, -187500.02, -187500.02, -187500.02, -187500.02, 0.214, 0.994, -0.092, 02:41:06.157
166, 29761.10, 8308.46, -187500.02, -187500.02, -187500.02, -187500.02, -187500.02, -187500.02, 0.000, 0.000, 0.000, 02:41:06.157
167, 29734.48, 8319.63, -187500.02, -187500.02, -187500.02, -187500.02, -187500.02, -187500.02, 0.000, 0.000, 0.000, 02:41:06.157
168, 29730.23, 8307.00, -187500.02, -187500.02, -187500.02, -187500.02, -187500.02, -187500.02, 0.000, 0.000, 0.000, 02:41:06.157
169, 29755.98, 8310.80, -187500.02, -187500.02, -187500.02, -187500.02, -187500.02, -187500.02, 0.000, 0.000, 0.000, 02:41:06.157
170, 29764.05, 8308.52, -187500.02, -187500.02, -187500.02, -187500.02, -187500.02, -187500.02, 0.000, 0.000, 0.000, 02:41:06.157
171, 29737.32, 8293.86, -187500.02, -187500.02, -187500.02, -187500.02, -187500.02, -187500.02, 0.000, 0.000, 0.000, 02:41:06.157
172, 29726.93, 8264.02, -187500.02, -187500.02, -187500.02, -187500.02, -187500.02, -187500.02, 0.000, 0.000, 0.000, 02:41:06.158
173, 29748.23, 8315.88, -187500.02, -187500.02, -187500.02, -187500.02, -187500.02, -187500.02, 0.000, 0.000, 0.000, 02:41:06.158
174, 29748.38, 8322.52, -187500.02, -187500.02, -187500.02, -187500.02, -187500.02, -187500.02, 0.000, 0.000, 0.000, 02:41:06.158
175, 29726.86, 8301.19, -187500.02, -187500.02, -187500.02, -187500.02, -187500.02, -187500.02, 0.224, 0.998, -0.092, 02:41:06.158
176, 29715.28, 8293.61, -187500.02, -187500.02, -187500.02, -187500.02, -187500.02, -187500.02, 0.000, 0.000, 0.000, 02:41:06.158
177, 29738.68, 8313.49, -187500.02, -187500.02, -187500.02, -187500.02, -187500.02, -187500.02, 0.000, 0.000, 0.000, 02:41:06.158
178, 29763.63, 8284.81, -187500.02, -187500.02, -187500.02, -187500.02, -187500.02, -187500.02, 0.000, 0.000, 0.000, 02:41:06.158
179, 29765.84, 8288.58, -187500.02, -187500.02, -187500.02, -187500.02, -187500.02, -187500.02, 0.000, 0.000, 0.000, 02:41:06.158
180, 29737.54, 8289.99, -187500.02, -187500.02, -187500.02, -187500.02, -187500.02, -187500.02, 0.000, 0.000, 0.000, 02:41:06.158
181, 29744.90, 8324.64, -187500.02, -187500.02, -187500.02, -187500.02, -187500.02, -187500.02, 0.000, 0.000, 0.000, 02:41:06.159
182, 29758.22, 8323.14, -187500.02, -187500.02, -187500.02, -187500.02, -187500.02, -187500.02, 0.000, 0.000, 0.000, 02:41:06.159
183, 29749.97, 8306.11, -187500.02, -187500.02, -187500.02, -187500.02, -187500.02, -187500.02, 0.000, 0.000, 0.000, 02:41:06.159
184, 29726.57, 8299.63, -187500.02, -187500.02, -187500.02, -187500.02, -187500.02, -187500.02, 0.000, 0.000, 0.000, 02:41:06.159
185, 29737.05, 8291.80, -187500.02, -187500.02, -187500.02, -187500.02, -187500.02, -187500.02, 0.218, 0.992, -0.088, 02:41:06.159
186, 29761.15, 8317.78, -187500.02, -187500.02, -187500.02, -187500.02, -187500.02, -187500.02, 0.000, 0.000, 0.000, 02:41:06.159
187, 29744.31, 8314.02, -187500.02, -187500.02, -187500.02, -187500.02, -187500.02, -187500.02, 0.000, 0.000, 0.000, 02:41:06.159
188, 29721.34, 8299.56, -187500.02, -187500.02, -187500.02, -187500.02, -187500.02, -187500.02, 0.000, 0.000, 0.000, 02:41:06.159
189, 29729.83, 8282.84, -187500.02, -187500.02, -187500.02, -187500.02, -187500.02, -187500.02, 0.000, 0.000, 0.000, 02:41:06.159
190, 29746.39, 8287.67, -187500.02, -187500.02, -187500.02, -187500.02, -187500.02, -187500.02, 0.000, 0.000, 0.000, 02:41:06.160
191, 29738.64, 8285.86, -187500.02, -187500.02, -187500.02, -187500.02, -187500.02, -187500.02, 0.000, 0.000, 0.000, 02:41:06.160
192, 29726.90, 8285.52, -187500.02, -187500.02, -187500.02, -187500.02, -187500.02, -187500.02, 0.000, 0.000, 0.000, 02:41:06.160
193, 29733.54, 8286.69, -187500.02, -187500.02, -187500.02, -187500.02, -187500.02, -187500.02, 0.000, 0.000, 0.000, 02:41:06.160
194, 29740.65, 8307.76, -187500.02, -187500.02, -187500.02, -187500.02, -187500.02, -187500.02, 0.212, 0.988, -0.088, 02:41:06.160
195, 29734.84, 8313.98, -187500.02, -187500.02, -187500.02, -187500.02, -187500.02, -187500.02, 0.000, 0.000, 0.000, 02:41:06.160
196, 29723.84, 8290.73, -187500.02, -187500.02, -187500.02, -187500.02, -187500.02, -187500.02, 0.000, 0.000, 0.000, 02:41:06.160
197, 29715.57, 8275.08, -187500.02, -187500.02, -187500.02, -187500.02, -187500.02, -187500.02, 0.000, 0.000, 0.000, 02:41:06.160
198, 29736.54, 8280.76, -187500.02, -187500.02, -187500.02, -187500.02, -187500.02, -187500.02, 0.000, 0.000, 0.000, 02:41:06.160
199, 29756.25, 8282.68, -187500.02, -187500.02, -187500.02, -187500.02, -187500.02, -187500.02, 0.000, 0.000, 0.000, 02:41:06.160
200, 29728.89, 8297.15, -187500.02, -187500.02, -187500.02, -187500.02, -187500.02, -187500.02, 0.000, 0.000, 0.000, 02:41:06.161
201, 29712.64, 8272.40, -187500.02, -187500.02, -187500.02, -187500.02, -187500.02, -187500.02, 0.000, 0.000, 0.000, 02:41:06.161
202, 29741.41, 8277.07, -187500.02, -187500.02, -187500.02, -187500.02, -187500.02, -187500.02, 0.000, 0.000, 0.000, 02:41:06.161
203, 29732.02, 8302.73, -187500.02, -187500.02, -187500.02, -187500.02, -187500.02, -187500.02, 0.000, 0.000, 0.000, 02:41:06.161
204, 29728.00, 8265.05, -187500.02, -187500.02, -187500.02, -187500.02, -187500.02, -187500.02, 0.212, 0.992, -0.090, 02:41:06.161
205, 29708.15, 8249.67, -187500.02, -187500.02, -187500.02, -187500.02, -187500.02, -187500.02, 0.000, 0.000, 0.000, 02:41:06.161
206, 29722.48, 8278.59, -187500.02, -187500.02, -187500.02, -187500.02, -187500.02, -187500.02, 0.000, 0.000, 0.000, 02:41:06.161
207, 29742.26, 8296.12, -187500.02, -187500.02, -187500.02, -187500.02, -187500.02, -187500.02, 0.000, 0.000, 0.000, 02:41:06.161
208, 29737.01, 8288.34, -187500.02, -187500.02, -187500.02, -187500.02, -187500.02, -187500.02, 0.000, 0.000, 0.000, 02:41:06.161
209, 29700.13, 8259.73, -187500.02, -187500.02, -187500.02, -187500.02, -187500.02, -187500.02, 0.000, 0.000, 0.000, 02:41:06.161
210, 29716.82, 8264.40, -187500.02, -187500.02, -187500.02, -187500.02, -187500.02, -187500.02, 0.000, 0.000, 0.000, 02:41:06.162
211, 29747.94, 8309.62, -187500.02, -187500.02, -187500.02, -187500.02, -187500.02, -187500.02, 0.000, 0.000, 0.000, 02:41:06.162
212, 29744.18, 8298.55, -187500.02, -187500.02, -187500.02, -187500.02, -187500.02, -187500.02, 0.000, 0.000, 0.000, 02:41:06.162
213, 29715.55, 8301.42, -187500.02, -187500.02, -187500.02, -187500.02, -187500.02, -187500.02, 0.000, 0.000, 0.000, 02:41:06.162
214, 29708.78, 8266.03, -187500.02, -187500.02, -187500.02, -187500.02, -187500.02, -187500.02, 0.214, 0.990, -0.088, 02:41:06.162
215, 29753.08, 8264.29, -187500.02, -187500.02, -187500.02, -187500.02, -187500.02, -187500.02, 0.000, 0.000, 0.000, 02:41:06.162
216, 29744.38, 8304.68, -187500.02, -187500.02, -187500.02, -187500.02, -187500.02, -187500.02, 0.000, 0.000, 0.000, 02:41:06.162
217, 29707.10, 8279.33, -187500.02, -187500.02, -187500.02, -187500.02, -187500.02, -187500.02, 0.000, 0.000, 0.000, 02:41:06.162
218, 29696.95, 8257.47, -187500.02, -187500.02, -187500.02, -187500.02, -187500.02, -187500.02, 0.000, 0.000, 0.000, 02:41:06.162
219, 29738.79, 8274.15, -187500.02, -187500.02, -187500.02, -187500.02, -187500.02, -187500.02, 0.000, 0.000, 0.000, 02:41:06.163
220, 29744.27, 8284.65, -187500.02, -187500.02, -187500.02, -187500.02, -187500.02, -187500.02, 0.000, 0.000, 0.000, 02:41:06.163
221, 29732.49, 8270.12, -187500.02, -187500.02, -187500.02, -187500.02, -187500.02, -187500.02, 0.000, 0.000, 0.000, 02:41:06.163
222, 29709.27, 8248.13, -187500.02, -187500.02, -187500.02, -187500.02, -187500.02, -187500.02, 0.000, 0.000, 0.000, 02:41:06.163
223, 29730.93, 8252.84, -187500.02, -187500.02, -187500.02, -187500.02, -187500.02, -187500.02, 0.000, 0.000, 0.000, 02:41:06.163
224, 29731.15, 8267.55, -187500.02, -187500.02, -187500.02, -187500.02, -187500.02, -187500.02, 0.218, 0.990, -0.092, 02:41:06.163
225, 29724.20, 8269.61, -187500.02, -187500.02, -187500.02, -187500.02, -187500.02, -187500.02, 0.000, 0.000, 0.000, 02:41:06.163
226, 29698.45, 8298.35, -187500.02, -187500.02, -187500.02, -187500.02, -187500.02, -187500.02, 0.000, 0.000, 0.000, 02:41:06.629
227, 29725.61, 8275.93, -187500.02, -187500.02, -187500.02, -187500.02, -187500.02, -187500.02, 0.000, 0.000, 0.000, 02:41:06.630
228, 29735.46, 8298.38, -187500.02, -187500.02, -187500.02, -187500.02, -187500.02, -187500.02, 0.000, 0.000, 0.000, 02:41:06.630
229, 29719.41, 8286.22, -187500.02, -187500.02, -187500.02, -187500.02, -187500.02, -187500.02, 0.000, 0.000, 0.000, 02:41:06.630
230, 29713.69, 8261.72, -187500.02, -187500.02, -187500.02, -187500.02, -187500.02, -187500.02, 0.000, 0.000, 0.000, 02:41:06.631
231, 29730.59, 8259.55, -187500.02, -187500.02, -187500.02, -187500.02, -187500.02, -187500.02, 0.000, 0.000, 0.000, 02:41:06.631
232, 29743.94, 8279.38, -187500.02, -187500.02, -187500.02, -187500.02, -187500.02, -187500.02, 0.000, 0.000, 0.000, 02:41:06.631
233, 29728.40, 8288.56, -187500.02, -187500.02, -187500.02, -187500.02, -187500.02, -187500.02, 0.000, 0.000, 0.000, 02:41:06.631
234, 29711.70, 8235.61, -187500.02, -187500.02, -187500.02, -187500.02, -187500.02, -187500.02, 0.218, 0.990, -0.090, 02:41:06.631
235, 29711.79, 8260.58, -187500.02, -187500.02, -187500.02, -187500.02, -187500.02, -187500.02, 0.000, 0.000, 0.000, 02:41:06.631
236, 29741.74, 8251.57, -187500.02, -187500.02, -187500.02, -187500.02, -187500.02, -187500.02, 0.000, 0.000, 0.000, 02:41:06.631
237, 29737.56, 8284.18, -187500.02, -187500.02, -187500.02, -187500.02, -187500.02, -187500.02, 0.000, 0.000, 0.000, 02:41:06.631
238, 29717.54, 8280.56, -187500.02, -187500.02, -187500.02, -187500.02, -187500.02, -187500.02, 0.000, 0.000, 0.000, 02:41:06.631
239, 29712.93, 8277.88, -187500.02, -187500.02, -187500.02, -187500.02, -187500.02, -187500.02, 0.000, 0.000, 0.000, 02:41:06.631
240, 29739.87, 8282.57, -187500.02, -187500.02, -187500.02, -187500.02, -187500.02, -187500.02, 0.000, 0.000, 0.000, 02:41:06.632
241, 29731.87, 8269.00, -187500.02, -187500.02, -187500.02, -187500.02, -187500.02, -187500.02, 0.000, 0.000, 0.000, 02:41:06.632
242, 29720.44, 8264.96, -187500.02, -187500.02, -187500.02, -187500.02, -187500.02, -187500.02, 0.000, 0.000, 0.000, 02:41:06.632
243, 29722.32, 8260.60, -187500.02, -187500.02, -187500.02, -187500.02, -187500.02, -187500.02, 0.000, 0.000, 0.000, 02:41:06.632
244, 29751.94, 8284.07, -187500.02, -187500.02, -187500.02, -187500.02, -187500.02, -187500.02, 0.216, 0.990, -0.096, 02:41:06.632
245, 29741.92, 8290.44, -187500.02, -187500.02, -187500.02, -187500.02, -187500.02, -187500.02, 0.000, 0.000, 0.000, 02:41:06.632
246, 29723.26, 8276.05, -187500.02, -187500.02, -187500.02, -187500.02, -187500.02, -187500.02, 0.000, 0.000, 0.000, 02:41:06.633
247, 29711.10, 8246.61, -187500.02, -187500.02, -187500.02, -187500.02, -187500.02, -187500.02, 0.000, 0.000, 0.000, 02:41:06.633
248, 29737.18, 8258.25, -187500.02, -187500.02, -187500.02, -187500.02, -187500.02, -187500.02, 0.000, 0.000, 0.000, 02:41:06.633
249, 29741.65, 8258.39, -187500.02, -187500.02, -187500.02, -187500.02, -187500.02, -187500.02, 0.000, 0.000, 0.000, 02:41:06.633
250, 29729.14, 8257.40, -187500.02, -187500.02, -187500.02, -187500.02, -187500.02, -187500.02, 0.000, 0.000, 0.000, 02:41:06.633
251, 29706.21, 8229.93, -187500.02, -187500.02, -187500.02, -187500.02, -187500.02, -187500.02, 0.000, 0.000, 0.000, 02:41:06.634
252, 29723.15, 8238.52, -187500.02, -187500.02, -187500.02, -187500.02, -187500.02, -187500.02, 0.000, 0.000, 0.000, 02:41:06.634
253, 29737.45, 8287.02, -187500.02, -187500.02, -187500.02, -187500.02, -187500.02, -187500.02, 0.000, 0.000, 0.000, 02:41:06.634
254, 29737.74, 8306.91, -187500.02, -187500.02, -187500.02, -187500.02, -187500.02, -187500.02, 0.216, 0.986, -0.100, 02:41:06.634
255, 29706.09, 8284.09, -187500.02, -187500.02, -187500.02, -187500.02, -187500.02, -187500.02, 0.000, 0.000, 0.000, 02:41:06.634
0, 29723.39, 8268.71, -187500.02, -187500.02, -187500.02, -187500.02, -187500.02, -187500.02, 0.000, 0.000, 0.000, 02:41:06.634
1, 29744.31, 8281.08, -187500.02, -187500.02, -187500.02, -187500.02, -187500.02, -187500.02, 0.000, 0.000, 0.000, 02:41:06.634
2, 29735.51, 8287.07, -187500.02, -187500.02, -187500.02, -187500.02, -187500.02, -187500.02, 0.000, 0.000, 0.000, 02:41:06.635
3, 29716.17, 8266.81, -187500.02, -187500.02, -187500.02, -187500.02, -187500.02, -187500.02, 0.000, 0.000, 0.000, 02:41:06.635
4, 29715.88, 8246.99, -187500.02, -187500.02, -187500.02, -187500.02, -187500.02, -187500.02, 0.000, 0.000, 0.000, 02:41:06.635
5, 29743.78, 8269.21, -187500.02, -187500.02, -187500.02, -187500.02, -187500.02, -187500.02, 0.000, 0.000, 0.000, 02:41:06.635
6, 29744.05, 8269.16, -187500.02, -187500.02, -187500.02, -187500.02, -187500.02, -187500.02, 0.000, 0.000, 0.000, 02:41:06.635
7, 29722.25, 8257.72, -187500.02, -187500.02, -187500.02, -187500.02, -187500.02, -187500.02, 0.216, 0.992, -0.098, 02:41:06.635
8, 29710.05, 8243.46, -187500.02, -187500.02, -187500.02, -187500.02, -187500.02, -187500.02, 0.000, 0.000, 0.000, 02:41:06.635
9, 29721.05, 8257.16, -187500.02, -187500.02, -187500.02, -187500.02, -187500.02, -187500.02, 0.000, 0.000, 0.000, 02:41:06.635
10, 29721.25, 8250.83, -187500.02, -187500.02, -187500.02, -187500.02, -187500.02, -187500.02, 0.000, 0.000, 0.000, 02:41:06.636
11, 29717.25, 8258.23, -187500.02, -187500.02, -187500.02, -187500.02, -187500.02, -187500.02, 0.000, 0.000, 0.000, 02:41:06.636
12, 29696.68, 8246.54, -187500.02, -187500.02, -187500.02, -187500.02, -187500.02, -187500.02, 0.000, 0.000, 0.000, 02:41:06.636
13, 29733.72, 8268.76, -187500.02, -187500.02, -187500.02, -187500.02, -187500.02, -187500.02, 0.000, 0.000, 0.000, 02:41:06.636
14, 29759.76, 8255.39, -187500.02, -187500.02, -187500.02, -187500.02, -187500.02, -187500.02, 0.000, 0.000, 0.000, 02:41:06.636
15, 29745.92, 8286.86, -187500.02, -187500.02, -187500.02, -187500.02, -187500.02, -187500.02, 0.000, 0.000, 0.000, 02:41:06.636
16, 29721.85, 8267.55, -187500.02, -187500.02, -187500.02, -187500.02, -187500.02, -187500.02, 0.000, 0.000, 0.000, 02:41:06.636
17, 29742.48, 8258.41, -187500.02, -187500.02, -187500.02, -187500.02, -187500.02, -187500.02, 0.220, 0.990, -0.090, 02:41:06.636
18, 29740.27, 8291.00, -187500.02, -187500.02, -187500.02, -187500.02, -187500.02, -187500.02, 0.000, 0.000, 0.000, 02:41:06.637
19, 29730.63, 8292.52, -187500.02, -187500.02, -187500.02, -187500.02, -187500.02, -187500.02, 0.000, 0.000, 0.000, 02:41:06.637
20, 29710.14, 8253.00, -187500.02, -187500.02, -187500.02, -187500.02, -187500.02, -187500.02, 0.000, 0.000, 0.000, 02:41:06.637
21, 29732.27, 8254.23, -187500.02, -187500.02, -187500.02, -187500.02, -187500.02, -187500.02, 0.000, 0.000, 0.000, 02:41:06.637
22, 29742.77, 8259.75, -187500.02, -187500.02, -187500.02, -187500.02, -187500.02, -187500.02, 0.000, 0.000, 0.000, 02:41:06.637
23, 29740.58, 8254.41, -187500.02, -187500.02, -187500.02, -187500.02, -187500.02, -187500.02, 0.000, 0.000, 0.000, 02:41:06.638
24, 29702.03, 8235.46, -187500.02, -187500.02, -187500.02, -187500.02, -187500.02, -187500.02, 0.000, 0.000, 0.000, 02:41:06.638
25, 29714.50, 8210.96, -187500.02, -187500.02, -187500.02, -187500.02, -187500.02, -187500.02, 0.000, 0.000, 0.000, 02:41:06.638
26, 29727.28, 8255.37, -187500.02, -187500.02, -187500.02, -187500.02, -187500.02, -187500.02, 0.000, 0.000, 0.000, 02:41:06.638
27, 29711.97, 8260.65, -187500.02, -187500.02, -187500.02, -187500.02, -187500.02, -187500.02, 0.224, 0.994, -0.092, 02:41:06.638
28, 29691.07, 8249.18, -187500.02, -187500.02, -187500.02, -187500.02, -187500.02, -187500.02, 0.000, 0.000, 0.000, 02:41:06.638
29, 29704.55, 8231.05, -187500.02, -187500.02, -187500.02, -187500.02, -187500.02, -187500.02, 0.000, 0.000, 0.000, 02:41:06.638
30, 29715.32, 8267.64, -187500.02, -187500.02, -187500.02, -187500.02, -187500.02, -187500.02, 0.000, 0.000, 0.000, 02:41:06.639
31, 29723.44, 8269.68, -187500.02, -187500.02, -187500.02, -187500.02, -187500.02, -187500.02, 0.000, 0.000, 0.000, 02:41:06.639
32, 29712.42, 8247.79, -187500.02, -187500.02, -187500.02, -187500.02, -187500.02, -187500.02, 0.000, 0.000, 0.000, 02:41:06.639
33, 29707.35, 8227.41, -187500.02, -187500.02, -187500.02, -187500.02, -187500.02, -187500.02, 0.000, 0.000, 0.000, 02:41:06.639
34, 29736.16, 8248.51, -187500.02, -187500.02, -187500.02, -187500.02, -187500.02, -187500.02, 0.000, 0.000, 0.000, 02:41:06.639
35, 29745.19, 8248.13, -187500.02, -187500.02, -187500.02, -187500.02, -187500.02, -187500.02, 0.000, 0.000, 0.000, 02:41:06.639
36, 29728.47, 8237.49, -187500.02, -187500.02, -187500.02, -187500.02, -187500.02, -187500.02, 0.000, 0.000, 0.000, 02:41:06.639
37, 29705.51, 8253.72, -187500.02, -187500.02, -187500.02, -187500.02, -187500.02, -187500.02, 0.218, 0.996, -0.094, 02:41:06.639
38, 29721.63, 8267.42, -187500.02, -187500.02, -187500.02, -187500.02, -187500.02, -187500.02, 0.000, 0.000, 0.000, 02:41:06.640
39, 29728.74, 8250.45, -187500.02, -187500.02, -187500.02, -187500.02, -187500.02, -187500.02, 0.000, 0.000, 0.000, 02:41:06.640
40, 29722.07, 8250.01, -187500.02, -187500.02, -187500.02, -187500.02, -187500.02, -187500.02, 0.000, 0.000, 0.000, 02:41:06.640
41, 29713.02, 8255.10, -187500.02, -187500.02, -187500.02, -187500.02, -187500.02, -187500.02, 0.000, 0.000, 0.000, 02:41:06.640
42, 29729.05, 8236.57, -187500.02, -187500.02, -187500.02, -187500.02, -187500.02, -187500.02, 0.000, 0.000, 0.000, 02:41:06.640
43, 29742.55, 8222.83, -187500.02, -187500.02, -187500.02, -187500.02, -187500.02, -187500.02, 0.000, 0.000, 0.000, 02:41:06.640
44, 29726.19, 8247.82, -187500.02, -187500.02, -187500.02, -187500.02, -187500.02, -187500.02, 0.000, 0.000, 0.000, 02:41:06.640
45, 29705.45, 8256.47, -187500.02, -187500.02, -187500.02, -187500.02, -187500.02, -187500.02, 0.000, 0.000, 0.000, 02:41:06.640
46, 29727.01, 8251.66, -187500.02, -187500.02, -187500.02, -187500.02, -187500.02, -187500.02, 0.000, 0.000, 0.000, 02:41:06.641
47, 29739.04, 8281.12, -187500.02, -187500.02, -187500.02, -187500.02, -187500.02, -187500.02, 0.218, 0.994, -0.090, 02:41:06.641
48, 29730.46, 8255.64, -187500.02, -187500.02, -187500.02, -187500.02, -187500.02, -187500.02, 0.000, 0.000, 0.000, 02:41:06.641
49, 29694.76, 8230.27, -187500.02, -187500.02, -187500.02, -187500.02, -187500.02, -187500.02, 0.000, 0.000, 0.000, 02:41:06.641
50, 29727.01, 8231.23, -187500.02, -187500.02, -187500.02, -187500.02, -187500.02, -187500.02, 0.000, 0.000, 0.000, 02:41:06.641
51, 29757.61, 8264.36, -187500.02, -187500.02, -187500.02, -187500.02, -187500.02, -187500.02, 0.000, 0.000, 0.000, 02:41:06.641
52, 29737.25, 8263.84, -187500.02, -187500.02, -187500.02, -187500.02, -187500.02, -187500.02, 0.000, 0.000, 0.000, 02:41:06.641
53, 29711.59, 8240.44, -187500.02, -187500.02, -187500.02, -187500.02, -187500.02, -187500.02, 0.000, 0.000, 0.000, 02:41:06.642
54, 29713.16, 8225.42, -187500.02, -187500.02, -187500.02, -187500.02, -187500.02, -187500.02, 0.000, 0.000, 0.000, 02:41:06.642
55, 29737.86, 8242.85, -187500.02, -187500.02, -187500.02, -187500.02, -187500.02, -187500.02, 0.000, 0.000, 0.000, 02:41:06.642
56, 29736.38, 8238.09, -187500.02, -187500.02, -187500.02, -187500.02, -187500.02, -187500.02, 0.000, 0.000, 0.000, 02:41:06.642
57, 29727.91, 8221.44, -187500.02, -187500.02, -187500.02, -187500.02, -187500.02, -187500.02, 0.216, 0.994, -0.092, 02:41:06.642
58, 29720.64, 8246.18, -187500.02, -187500.02, -187500.02, -187500.02, -187500.02, -187500.02, 0.000, 0.000, 0.000, 02:41:06.642
59, 29750.42, 8256.71, -187500.02, -187500.02, -187500.02, -187500.02, -187500.02, -187500.02, 0.000, 0.000, 0.000, 02:41:06.642
60, 29746.19, 8267.98, -187500.02, -187500.02, -187500.02, -187500.02, -187500.02, -187500.02, 0.000, 0.000, 0.000, 02:41:06.643
61, 29734.66, 8250.27, -187500.02, -187500.02, -187500.02, -187500.02, -187500.02, -187500.02, 0.000, 0.000, 0.000, 02:41:06.643
62, 29737.38, 8228.48, -187500.02, -187500.02, -187500.02, -187500.02, -187500.02, -187500.02, 0.000, 0.000, 0.000, 02:41:06.643
63, 29748.03, 8240.04, -187500.02, -187500.02, -187500.02, -187500.02, -187500.02, -187500.02, 0.000, 0.000, 0.000, 02:41:06.643
64, 29748.25, 8249.83, -187500.02, -187500.02, -187500.02, -187500.02, -187500.02, -187500.02, 0.000, 0.000, 0.000, 02:41:06.643
65, 29725.72, 8275.80, -187500.02, -187500.02, -187500.02, -187500.02, -187500.02, -187500.02, 0.000, 0.000, 0.000, 02:41:06.643
66, 29701.38, 8250.05, -187500.02, -187500.02, -187500.02, -187500.02, -187500.02, -187500.02, 0.218, 0.998, -0.088, 02:41:06.643
67, 29736.60, 8234.63, -187500.02, -187500.02, -187500.02, -187500.02, -187500.02, -187500.02, 0.000, 0.000, 0.000, 02:41:06.644
68, 29747.09, 8272.04, -187500.02, -187500.02, -187500.02, -187500.02, -187500.02, -187500.02, 0.000, 0.000, 0.000, 02:41:06.644
69, 29731.71, 8255.21, -187500.02, -187500.02, -187500.02, -187500.02, -187500.02, -187500.02, 0.000, 0.000, 0.000, 02:41:06.644
70, 29713.25, 8234.25, -187500.02, -187500.02, -187500.02, -187500.02, -187500.02, -187500.02, 0.000, 0.000, 0.000, 02:41:06.644
71, 29736.34, 8240.39, -187500.02, -187500.02, -187500.02, -187500.02, -187500.02, -187500.02, 0.000, 0.000, 0.000, 02:41:06.644
72, 29754.06, 8250.14, -187500.02, -187500.02, -187500.02, -187500.02, -187500.02, -187500.02, 0.000, 0.000, 0.000, 02:41:06.644
73, 29740.49, 8260.44, -187500.02, -187500.02, -187500.02, -187500.02, -187500.02, -187500.02, 0.000, 0.000, 0.000, 02:41:06.644
74, 29723.33, 8246.59, -187500.02, -187500.02, -187500.02, -187500.02, -187500.02, -187500.02, 0.000, 0.000, 0.000, 02:41:06.645
75, 29744.72, 8271.51, -187500.02, -187500.02, -187500.02, -187500.02, -187500.02, -187500.02, 0.000, 0.000, 0.000, 02:41:06.645
76, 29770.38, 8280.85, -187500.02, -187500.02, -187500.02, -187500.02, -187500.02, -187500.02, 0.216, 0.994, -0.092, 02:41:06.645
77, 29762.60, 8294.37, -187500.02, -187500.02, -187500.02, -187500.02, -187500.02, -187500.02, 0.000, 0.000, 0.000, 02:41:06.645
78, 29725.16, 8291.07, -187500.02, -187500.02, -187500.02, -187500.02, -187500.02, -187500.02, 0.000, 0.000, 0.000, 02:41:06.645
79, 29733.52, 8262.97, -187500.02, -187500.02, -187500.02, -187500.02, -187500.02, -187500.02, 0.000, 0.000, 0.000, 02:41:06.645
80, 29759.09, 8289.99, -187500.02, -187500.02, -187500.02, -187500.02, -187500.02, -187500.02, 0.000, 0.000, 0.000, 02:41:06.645
81, 29751.78, 8294.73, -187500.02, -187500.02, -187500.02, -187500.02, -187500.02, -187500.02, 0.000, 0.000, 0.000, 02:41:06.645
82, 29738.62, 8293.12, -187500.02, -187500.02, -187500.02, -187500.02, -187500.02, -187500.02, 0.000, 0.000, 0.000, 02:41:06.645
83, 29736.02, 8283.29, -187500.02, -187500.02, -187500.02, -187500.02, -187500.02, -187500.02, 0.000, 0.000, 0.000, 02:41:06.646
84, 29763.02, 8304.81, -187500.02, -187500.02, -187500.02, -187500.02, -187500.02, -187500.02, 0.000, 0.000, 0.000, 02:41:06.646
85, 29754.17, 8327.68, -187500.02, -187500.02, -187500.02, -187500.02, -187500.02, -187500.02, 0.000, 0.000, 0.000, 02:41:06.646
86, 29745.68, 8307.88, -187500.02, -187500.02, -187500.02, -187500.02, -187500.02, -187500.02, 0.220, 0.996, -0.096, 02:41:06.646
87, 29738.19, 8276.65, -187500.02, -187500.02, -187500.02, -187500.02, -187500.02, -187500.02, 0.000, 0.000, 0.000, 02:41:06.646
88, 29760.68, 8261.27, -187500.02, -187500.02, -187500.02, -187500.02, -187500.02, -187500.02, 0.000, 0.000, 0.000, 02:41:06.646
89, 29755.98, 8277.88, -187500.02, -187500.02, -187500.02, -187500.02, -187500.02, -187500.02, 0.000, 0.000, 0.000, 02:41:06.646
90, 29733.38, 8300.79, -187500.02, -187500.02, -187500.02, -187500.02, -187500.02, -187500.02, 0.000, 0.000, 0.000, 02:41:07.110
91, 29721.74, 8291.45, -187500.02, -187500.02, -187500.02, -187500.02, -187500.02, -187500.02, 0.000, 0.000, 0.000, 02:41:07.110
92, 29749.59, 8304.77, -187500.02, -187500.02, -187500.02, -187500.02, -187500.02, -187500.02, 0.000, 0.000, 0.000, 02:41:07.110
93, 29766.96, 8321.13, -187500.02, -187500.02, -187500.02, -187500.02, -187500.02, -187500.02, 0.000, 0.000, 0.000, 02:41:07.110
94, 29755.09, 8316.08, -187500.02, -187500.02, -187500.02, -187500.02, -187500.02, -187500.02, 0.000, 0.000, 0.000, 02:41:07.110
95, 29744.31, 8281.17, -187500.02, -187500.02, -187500.02, -187500.02, -187500.02, -187500.02, 0.000, 0.000, 0.000, 02:41:07.116
96, 29758.15, 8301.08, -187500.02, -187500.02, -187500.02, -187500.02, -187500.02, -187500.02, 0.214, 0.992, -0.098, 02:41:07.116
97, 29763.98, 8332.77, -187500.02, -187500.02, -187500.02, -187500.02, -187500.02, -187500.02, 0.000, 0.000, 0.000, 02:41:07.117
98, 29748.67, 8311.09, -187500.02, -187500.02, -187500.02, -187500.02, -187500.02, -187500.02, 0.000, 0.000, 0.000, 02:41:07.117
99, 29740.02, 8282.04, -187500.02, -187500.02, -187500.02, -187500.02, -187500.02, -187500.02, 0.000, 0.000, 0.000, 02:41:07.117
100, 29772.05, 8279.82, -187500.02, -187500.02, -187500.02, -187500.02, -187500.02, -187500.02, 0.000, 0.000, 0.000, 02:41:07.117
101, 29778.18, 8325.78, -187500.02, -187500.02, -187500.02, -187500.02, -187500.02, -187500.02, 0.000, 0.000, 0.000, 02:41:07.117
102, 29766.22, 8321.55, -187500.02, -187500.02, -187500.02, -187500.02, -187500.02, -187500.02, 0.000, 0.000, 0.000, 02:41:07.117
103, 29746.48, 8286.98, -187500.02, -187500.02, -187500.02, -187500.02, -187500.02, -187500.02, 0.000, 0.000, 0.000, 02:41:07.117
104, 29745.46, 8281.23, -187500.02, -187500.02, -187500.02, -187500.02, -187500.02, -187500.02, 0.000, 0.000, 0.000, 02:41:07.118
105, 29772.68, 8300.01, -187500.02, -187500.02, -187500.02, -187500.02, -187500.02, -187500.02, 0.000, 0.000, 0.000, 02:41:07.118
106, 29755.20, 8328.51, -187500.02, -187500.02, -187500.02, -187500.02, -187500.02, -187500.02, 0.220, 0.992, -0.094, 02:41:07.118
107, 29727.30, 8316.10, -187500.02, -187500.02, -187500.02, -187500.02, -187500.02, -187500.02, 0.000, 0.000, 0.000, 02:41:07.118
108, 29723.71, 8284.03, -187500.02, -187500.02, -187500.02, -187500.02, -187500.02, -187500.02, 0.000, 0.000, 0.000, 02:41:07.118
109, 29747.94, 8297.86, -187500.02, -187500.02, -187500.02, -187500.02, -187500.02, -187500.02, 0.000, 0.000, 0.000, 02:41:07.118
110, 29756.43, 8313.51, -187500.02, -187500.02, -187500.02, -187500.02, -187500.02, -187500.02, 0.000, 0.000, 0.000, 02:41:07.118
111, 29748.70, 8313.42, -187500.02, -187500.02, -187500.02, -187500.02, -187500.02, -187500.02, 0.000, 0.000, 0.000, 02:41:07.118
112, 29726.34, 8315.23, -187500.02, -187500.02, -187500.02, -187500.02, -187500.02, -187500.02, 0.000, 0.000, 0.000, 02:41:07.119
113, 29756.72, 8295.02, -187500.02, -187500.02, -187500.02, -187500.02, -187500.02, -187500.02, 0.000, 0.000, 0.000, 02:41:07.119
114, 29767.72, 8320.35, -187500.02, -187500.02, -187500.02, -187500.02, -187500.02, -187500.02, 0.000, 0.000, 0.000, 02:41:07.119
115, 29762.42, 8317.15, -187500.02, -187500.02, -187500.02, -187500.02, -187500.02, -187500.02, 0.000, 0.000, 0.000, 02:41:07.119
116, 29746.95, 8315.16, -187500.02, -187500.02, -187500.02, -187500.02, -187500.02, -187500.02, 0.222, 0.990, -0.098, 02:41:07.119
117, 29756.16, 8299.49, -187500.02, -187500.02, -187500.02, -187500.02, -187500.02, -187500.02, 0.000, 0.000, 0.000, 02:41:07.119
118, 29751.51, 8314.92, -187500.02, -187500.02, -187500.02, -187500.02, -187500.02, -187500.02, 0.000, 0.000, 0.000, 02:41:07.120
119, 29744.61, 8299.05, -187500.02, -187500.02, -187500.02, -187500.02, -187500.02, -187500.02, 0.000, 0.000, 0.000, 02:41:07.120
120, 29716.82, 8289.28, -187500.02, -187500.02, -187500.02, -187500.02, -187500.02, -187500.02, 0.000, 0.000, 0.000, 02:41:07.120
121, 29731.78, 8301.71, -187500.02, -187500.02, -187500.02, -187500.02, -187500.02, -187500.02, 0.000, 0.000, 0.000, 02:41:07.120
122, 29755.65, 8309.60, -187500.02, -187500.02, -187500.02, -187500.02, -187500.02, -187500.02, 0.000, 0.000, 0.000, 02:41:07.120
123, 29754.82, 8303.56, -187500.02, -187500.02, -187500.02, -187500.02, -187500.02, -187500.02, 0.000, 0.000, 0.000, 02:41:07.120
124, 29718.03, 8305.64, -187500.02, -187500.02, -187500.02, -187500.02, -187500.02, -187500.02, 0.000, 0.000, 0.000, 02:41:07.120
125, 29734.73, 8283.36, -187500.02, -187500.02, -187500.02, -187500.02, -187500.02, -187500.02, 0.214, 0.996, -0.098, 02:41:07.120
126, 29771.27, 8310.74, -187500.02, -187500.02, -187500.02, -187500.02, -187500.02, -187500.02, 0.000, 0.000, 0.000, 02:41:07.121
127, 29762.42, 8312.64, -187500.02, -187500.02, -187500.02, -187500.02, -187500.02, -187500.02, 0.000, 0.000, 0.000, 02:41:07.121
128, 29725.18, 8283.74, -187500.02, -187500.02, -187500.02, -187500.02, -187500.02, -187500.02, 0.000, 0.000, 0.000, 02:41:07.121
129, 29717.16, 8246.32, -187500.02, -187500.02, -187500.02, -187500.02, -187500.02, -187500.02, 0.000, 0.000, 0.000, 02:41:07.121
130, 29756.38, 8266.21, -187500.02, -187500.02, -187500.02, -187500.02, -187500.02, -187500.02, 0.000, 0.000, 0.000, 02:41:07.121
131, 29761.21, 8320.91, -187500.02, -187500.02, -187500.02, -187500.02, -187500.02, -187500.02, 0.000, 0.000, 0.000, 02:41:07.121
132, 29731.53, 8327.57, -187500.02, -187500.02, -187500.02, -187500.02, -187500.02, -187500.02, 0.000, 0.000, 0.000, 02:41:07.121
133, 29718.05, 8290.51, -187500.02, -187500.02, -187500.02, -187500.02, -187500.02, -187500.02, 0.000, 0.000, 0.000, 02:41:07.121
134, 29746.57, 8293.55, -187500.02, -187500.02, -187500.02, -187500.02, -187500.02, -187500.02, 0.000, 0.000, 0.000, 02:41:07.122
135, 29753.84, 8299.29, -187500.02, -187500.02, -187500.02, -187500.02, -187500.02, -187500.02, 0.216, 0.996, -0.092, 02:41:07.122
136, 29741.14, 8306.85, -187500.02, -187500.02, -187500.02, -187500.02, -187500.02, -187500.02, 0.000, 0.000, 0.000, 02:41:07.122
137, 29733.25, 8282.91, -187500.02, -187500.02, -187500.02, -187500.02, -187500.02, -187500.02, 0.000, 0.000, 0.000, 02:41:07.122
138, 29760.23, 8294.08, -187500.02, -187500.02, -187500.02, -187500.02, -187500.02, -187500.02, 0.000, 0.000, 0.000, 02:41:07.122
139, 29772.70, 8316.88, -187500.02, -187500.02, -187500.02, -187500.02, -187500.02, -187500.02, 0.000, 0.000, 0.000, 02:41:07.122
140, 29764.05, 8315.83, -187500.02, -187500.02, -187500.02, -187500.02, -187500.02, -187500.02, 0.000, 0.000, 0.000, 02:41:07.122
141, 29734.99, 8299.94, -187500.02, -187500.02, -187500.02, -187500.02, -187500.02, -187500.02, 0.000, 0.000, 0.000, 02:41:07.122
142, 29740.87, 8313.64, -187500.02, -187500.02, -187500.02, -187500.02, -187500.02, -187500.02, 0.000, 0.000, 0.000, 02:41:07.123
143, 29763.20, 8301.28, -187500.02, -187500.02, -187500.02, -187500.02, -187500.02, -187500.02, 0.000, 0.000, 0.000, 02:41:07.123
144, 29750.53, 8302.24, -187500.02, -187500.02, -187500.02, -187500.02, -187500.02, -187500.02, 0.000, 0.000, 0.000, 02:41:07.123
145, 29712.04, 8293.99, -187500.02, -187500.02, -187500.02, -187500.02, -187500.02, -187500.02, 0.208, 1.000, -0.094, 02:41:07.123
146, 29728.40, 8265.90, -187500.02, -187500.02, -187500.02, -187500.02, -187500.02, -187500.02, 0.000, 0.000, 0.000, 02:41:07.123
147, 29759.85, 8295.42, -187500.02, -187500.02, -187500.02, -187500.02, -187500.02, -187500.02, 0.000, 0.000, 0.000, 02:41:07.123
148, 29753.70, 8336.64, -187500.02, -187500.02, -187500.02, -187500.02, -187500.02, -187500.02, 0.000, 0.000, 0.000, 02:41:07.123
149, 29724.15, 8319.07, -187500.02, -187500.02, -187500.02, -187500.02, -187500.02, -187500.02, 0.000, 0.000, 0.000, 02:41:07.123
150, 29719.24, 8285.88, -187500.02, -187500.02, -187500.02, -187500.02, -187500.02, -187500.02, 0.000, 0.000, 0.000, 02:41:07.124
151, 29768.52, 8297.55, -187500.02, -187500.02, -187500.02, -187500.02, -187500.02, -187500.02, 0.000, 0.000, 0.000, 02:41:07.124
152, 29770.94, 8295.94, -187500.02, -187500.02, -187500.02, -187500.02, -187500.02, -187500.02, 0.000, 0.000, 0.000, 02:41:07.124
153, 29740.36, 8297.50, -187500.02, -187500.02, -187500.02, -187500.02, -187500.02, -187500.02, 0.000, 0.000, 0.000, 02:41:07.124
154, 29737.54, 8293.57, -187500.02, -187500.02, -187500.02, -187500.02, -187500.02, -187500.02, 0.000, 0.000, 0.000, 02:41:07.124
155, 29758.49, 8304.54, -187500.02, -187500.02, -187500.02, -187500.02, -187500.02, -187500.02, 0.208, 0.994, -0.092, 02:41:07.124
156, 29757.68, 8299.29, -187500.02, -187500.02, -187500.02, -187500.02, -187500.02, -187500.02, 0.000, 0.000, 0.000, 02:41:07.124
157, 29737.74, 8293.53, -187500.02, -187500.02, -187500.02, -187500.02, -187500.02, -187500.02, 0.000, 0.000, 0.000, 02:41:07.124
158, 29741.52, 8287.09, -187500.02, -187500.02, -187500.02, -187500.02, -187500.02, -187500.02, 0.000, 0.000, 0.000, 02:41:07.124
159, 29762.17, 8270.46, -187500.02, -187500.02, -187500.02, -187500.02, -187500.02, -187500.02, 0.000, 0.000, 0.000, 02:41:07.125
160, 29765.06, 8274.71, -187500.02, -187500.02, -187500.02, -187500.02, -187500.02, -187500.02, 0.000, 0.000, 0.000, 02:41:07.125
161, 29749.19, 8282.57, -187500.02, -187500.02, -187500.02, -187500.02, -187500.02, -187500.02, 0.000, 0.000, 0.000, 02:41:07.125
162, 29717.94, 8302.51, -187500.02, -187500.02, -187500.02, -187500.02, -187500.02, -187500.02, 0.000, 0.000, 0.000, 02:41:07.125
163, 29731.98, 8317.13, -187500.02, -187500.02, -187500.02, -187500.02, -187500.02, -187500.02, 0.000, 0.000, 0.000, 02:41:07.125
164, 29746.55, 8305.59, -187500.02, -187500.02, -187500.02, -187500.02, -187500.02, -187500.02, 0.000, 0.000, 0.000, 02:41:07.125
165, 29749.77, 8291.89, -187500.02, -187500.02, -187500.02, -187500.02, -187500.02, -187500.02, 0.212, 0.994, -0.094, 02:41:07.125
166, 29721.96, 8273.88, -187500.02, -187500.02, -187500.02, -187500.02, -187500.02, -187500.02, 0.000, 0.000, 0.000, 02:41:07.125
167, 29743.00, 8272.74, -187500.02, -187500.02, -187500.02, -187500.02, -187500.02, -187500.02, 0.000, 0.000, 0.000, 02:41:07.125
168, 29761.62, 8310.27, -187500.02, -187500.02, -187500.02, -187500.02, -187500.02, -187500.02, 0.000, 0.000, 0.000, 02:41:07.126
169, 29759.40, 8290.78, -187500.02, -187500.02, -187500.02, -187500.02, -187500.02, -187500.02, 0.000, 0.000, 0.000, 02:41:07.126
170, 29741.61, 8266.14, -187500.02, -187500.02, -187500.02, -187500.02, -187500.02, -187500.02, 0.000, 0.000, 0.000, 02:41:07.126
171, 29739.49, 8308.12, -187500.02, -187500.02, -187500.02, -187500.02, -187500.02, -187500.02, 0.000, 0.000, 0.000, 02:41:07.126
172, 29768.37, 8305.37, -187500.02, -187500.02, -187500.02, -187500.02, -187500.02, -187500.02, 0.000, 0.000, 0.000, 02:41:07.126
173, 29759.56, 8304.86, -187500.02, -187500.02, -187500.02, -187500.02, -187500.02, -187500.02, 0.000, 0.000, 0.000, 02:41:07.126
174, 29738.15, 8283.00, -187500.02, -187500.02, -187500.02, -187500.02, -187500.02, -187500.02, 0.000, 0.000, 0.000, 02:41:07.126
175, 29740.87, 8254.59, -187500.02, -187500.02, -187500.02, -187500.02, -187500.02, -187500.02, 0.216, 0.998, -0.092, 02:41:07.126
176, 29754.95, 8285.63, -187500.02, -187500.02, -187500.02, -187500.02, -187500.02, -187500.02, 0.000, 0.000, 0.000, 02:41:07.127
177, 29752.43, 8295.96, -187500.02, -187500.02, -187500.02, -187500.02, -187500.02, -187500.02, 0.000, 0.000, 0.000, 02:41:07.127
178, 29752.83, 8302.42, -187500.02, -187500.02, -187500.02, -187500.02, -187500.02, -187500.02, 0.000, 0.000, 0.000, 02:41:07.127
179, 29734.23, 8304.90, -187500.02, -187500.02, -187500.02, -187500.02, -187500.02, -187500.02, 0.000, 0.000, 0.000, 02:41:07.127
180, 29742.66, 8280.09, -187500.02, -187500.02, -187500.02, -187500.02, -187500.02, -187500.02, 0.000, 0.000, 0.000, 02:41:07.127
181, 29752.09, 8269.09, -187500.02, -187500.02, -187500.02, -187500.02, -187500.02, -187500.02, 0.000, 0.000, 0.000, 02:41:07.127
182, 29739.93, 8290.19, -187500.02, -187500.02, -187500.02, -187500.02, -187500.02, -187500.02, 0.000, 0.000, 0.000, 02:41:07.127
183, 29720.02, 8253.67, -187500.02, -187500.02, -187500.02, -187500.02, -187500.02, -187500.02, 0.000, 0.000, 0.000, 02:41:07.127
184, 29748.92, 8248.67, -187500.02, -187500.02, -187500.02, -187500.02, -187500.02, -187500.02, 0.000, 0.000, 0.000, 02:41:07.128
185, 29754.62, 8276.76, -187500.02, -187500.02, -187500.02, -187500.02, -187500.02, -187500.02, 0.216, 0.992, -0.086, 02:41:07.128
186, 29748.23, 8306.06, -187500.02, -187500.02, -187500.02, -187500.02, -187500.02, -187500.02, 0.000, 0.000, 0.000, 02:41:07.128
187, 29723.35, 8287.33, -187500.02, -187500.02, -187500.02, -187500.02, -187500.02, -187500.02, 0.000, 0.000, 0.000, 02:41:07.128
188, 29749.43, 8261.83, -187500.02, -187500.02, -187500.02, -187500.02, -187500.02, -187500.02, 0.000, 0.000, 0.000, 02:41:07.128
189, 29784.71, 8310.74, -187500.02, -187500.02, -187500.02, -187500.02, -187500.02, -187500.02, 0.000, 0.000, 0.000, 02:41:07.128
190, 29756.92, 8334.16, -187500.02, -187500.02, -187500.02, -187500.02, -187500.02, -187500.02, 0.000, 0.000, 0.000, 02:41:07.128
191, 29720.58, 8290.51, -187500.02, -187500.02, -187500.02, -187500.02, -187500.02, -187500.02, 0.000, 0.000, 0.000, 02:41:07.128
192, 29737.74, 8267.19, -187500.02, -187500.02, -187500.02, -187500.02, -187500.02, -187500.02, 0.000, 0.000, 0.000, 02:41:07.128
193, 29761.19, 8281.79, -187500.02, -187500.02, -187500.02, -187500.02, -187500.02, -187500.02, 0.000, 0.000, 0.000, 02:41:07.128
194, 29751.15, 8308.03, -187500.02, -187500.02, -187500.02, -187500.02, -187500.02, -187500.02, 0.218, 0.996, -0.084, 02:41:07.129
195, 29726.66, 8271.06, -187500.02, -187500.02, -187500.02, -187500.02, -187500.02, -187500.02, 0.000, 0.000, 0.000, 02:41:07.129
196, 29740.74, 8274.97, -187500.02, -187500.02, -187500.02, -187500.02, -187500.02, -187500.02, 0.000, 0.000, 0.000, 02:41:07.129
197, 29765.50, 8303.25, -187500.02, -187500.02, -187500.02, -187500.02, -187500.02, -187500.02, 0.000, 0.000, 0.000, 02:41:07.129
198, 29746.57, 8283.02, -187500.02, -187500.02, -187500.02, -187500.02, -187500.02, -187500.02, 0.000, 0.000, 0.000, 02:41:07.129
199, 29723.06, 8271.49, -187500.02, -187500.02, -187500.02, -187500.02, -187500.02, -187500.02, 0.000, 0.000, 0.000, 02:41:07.129
200, 29723.59, 8285.14, -187500.02, -187500.02, -187500.02, -187500.02, -187500.02, -187500.02, 0.000, 0.000, 0.000, 02:41:07.130
201, 29757.46, 8299.56, -187500.02, -187500.02, -187500.02, -187500.02, -187500.02, -187500.02, 0.000, 0.000, 0.000, 02:41:07.130
202, 29768.37, 8291.29, -187500.02, -187500.02, -187500.02, -187500.02, -187500.02, -187500.02, 0.000, 0.000, 0.000, 02:41:07.130
203, 29751.71, 8268.60, -187500.02, -187500.02, -187500.02, -187500.02, -187500.02, -187500.02, 0.000, 0.000, 0.000, 02:41:07.130
204, 29744.54, 8239.77, -187500.02, -187500.02, -187500.02, -187500.02, -187500.02, -187500.02, 0.218, 0.992, -0.088, 02:41:07.130
205, 29758.82, 8268.42, -187500.02, -187500.02, -187500.02, -187500.02, -187500.02, -187500.02, 0.000, 0.000, 0.000, 02:41:07.130
206, 29751.71, 8288.12, -187500.02, -187500.02, -187500.02, -187500.02, -187500.02, -187500.02, 0.000, 0.000, 0.000, 02:41:07.130
207, 29738.12, 8300.03, -187500.02, -187500.02, -187500.02, -187500.02, -187500.02, -187500.02, 0.000, 0.000, 0.000, 02:41:07.130
208, 29722.14, 8272.94, -187500.02, -187500.02, -187500.02, -187500.02, -187500.02, -187500.02, 0.000, 0.000, 0.000, 02:41:07.131
209, 29745.32, 8298.78, -187500.02, -187500.02, -187500.02, -187500.02, -187500.02, -187500.02, 0.000, 0.000, 0.000, 02:41:07.131
210, 29756.12, 8283.78, -187500.02, -187500.02, -187500.02, -187500.02, -187500.02, -187500.02, 0.000, 0.000, 0.000, 02:41:07.590
211, 29729.23, 8276.38, -187500.02, -187500.02, -187500.02, -187500.02, -187500.02, -187500.02, 0.000, 0.000, 0.000, 02:41:07.590
212, 29709.89, 8250.74, -187500.02, -187500.02, -187500.02, -187500.02, -187500.02, -187500.02, 0.000, 0.000, 0.000, 02:41:07.590
213, 29735.24, 8228.93, -187500.02, -187500.02, -187500.02, -187500.02, -187500.02, -187500.02, 0.000, 0.000, 0.000, 02:41:07.590
214, 29753.30, 8289.03, -187500.02, -187500.02, -187500.02, -187500.02, -187500.02, -187500.02, 0.218, 0.994, -0.088, 02:41:07.591
215, 29733.50, 8294.84, -187500.02, -187500.02, -187500.02, -187500.02, -187500.02, -187500.02, 0.000, 0.000, 0.000, 02:41:07.591
216, 29707.01, 8265.47, -187500.02, -187500.02, -187500.02, -187500.02, -187500.02, -187500.02, 0.000, 0.000, 0.000, 02:41:07.591
217, 29730.86, 8253.38, -187500.02, -187500.02, -187500.02, -187500.02, -187500.02, -187500.02, 0.000, 0.000, 0.000, 02:41:07.591
218, 29749.93, 8273.43, -187500.02, -187500.02, -187500.02, -187500.02, -187500.02, -187500.02, 0.000, 0.000, 0.000, 02:41:07.591
219, 29738.44, 8276.09, -187500.02, -187500.02, -187500.02, -187500.02, -187500.02, -187500.02, 0.000, 0.000, 0.000, 02:41:07.591
220, 29718.14, 8255.84, -187500.02, -187500.02, -187500.02, -187500.02, -187500.02, -187500.02, 0.000, 0.000, 0.000, 02:41:07.591
221, 29713.89, 8237.76, -187500.02, -187500.02, -187500.02, -187500.02, -187500.02, -187500.02, 0.000, 0.000, 0.000, 02:41:07.591
222, 29735.29, 8284.27, -187500.02, -187500.02, -187500.02, -187500.02, -187500.02, -187500.02, 0.000, 0.000, 0.000, 02:41:07.591
223, 29739.08, 8263.26, -187500.02, -187500.02, -187500.02, -187500.02, -187500.02, -187500.02, 0.000, 0.000, 0.000, 02:41:07.592
224, 29721.29, 8258.92, -187500.02, -187500.02, -187500.02, -187500.02, -187500.02, -187500.02, 0.216, 0.994, -0.094, 02:41:07.592
225, 29709.56, 8241.18, -187500.02, -187500.02, -187500.02, -187500.02, -187500.02, -187500.02, 0.000, 0.000, 0.000, 02:41:07.592
226, 29733.92, 8238.32, -187500.02, -187500.02, -187500.02, -187500.02, -187500.02, -187500.02, 0.000, 0.000, 0.000, 02:41:07.592
227, 29749.66, 8267.93, -187500.02, -187500.02, -187500.02, -187500.02, -187500.02, -187500.02, 0.000, 0.000, 0.000, 02:41:07.592
228, 29737.97, 8285.59, -187500.02, -187500.02, -187500.02, -187500.02, -187500.02, -187500.02, 0.000, 0.000, 0.000, 02:41:07.592
229, 29719.53, 8268.02, -187500.02, -187500.02, -187500.02, -187500.02, -187500.02, -187500.02, 0.000, 0.000, 0.000, 02:41:07.592
230, 29746.39, 8276.09, -187500.02, -187500.02, -187500.02, -187500.02, -187500.02, -187500.02, 0.000, 0.000, 0.000, 02:41:07.592
231, 29741.07, 8275.40, -187500.02, -187500.02, -187500.02, -187500.02, -187500.02, -187500.02, 0.000, 0.000, 0.000, 02:41:07.592
232, 29726.05, 8273.74, -187500.02, -187500.02, -187500.02, -187500.02, -187500.02, -187500.02, 0.000, 0.000, 0.000, 02:41:07.593
233, 29703.59, 8275.91, -187500.02, -187500.02, -187500.02, -187500.02, -187500.02, -187500.02, 0.000, 0.000, 0.000, 02:41:07.593
234, 29733.05, 8257.81, -187500.02, -187500.02, -187500.02, -187500.02, -187500.02, -187500.02, 0.224, 0.992, -0.088, 02:41:07.593
235, 29750.21, 8275.58, -187500.02, -187500.02, -187500.02, -187500.02, -187500.02, -187500.02, 0.000, 0.000, 0.000, 02:41:07.593
236, 29732.54, 8267.93, -187500.02, -187500.02, -187500.02, -187500.02, -187500.02, -187500.02, 0.000, 0.000, 0.000, 02:41:07.593
237, 29719.50, 8243.19, -187500.02, -187500.02, -187500.02, -187500.02, -187500.02, -187500.02, 0.000, 0.000, 0.000, 02:41:07.593
238, 29735.89, 8262.93, -187500.02, -187500.02, -187500.02, -187500.02, -187500.02, -187500.02, 0.000, 0.000, 0.000, 02:41:07.593
239, 29748.18, 8280.09, -187500.02, -187500.02, -187500.02, -187500.02, -187500.02, -187500.02, 0.000, 0.000, 0.000, 02:41:07.594
240, 29738.99, 8257.11, -187500.02, -187500.02, -187500.02, -187500.02, -187500.02, -187500.02, 0.000, 0.000, 0.000, 02:41:07.594
241, 29720.82, 8243.35, -187500.02, -187500.02, -187500.02, -187500.02, -187500.02, -187500.02, 0.000, 0.000, 0.000, 02:41:07.594
242, 29729.99, 8233.24, -187500.02, -187500.02, -187500.02, -187500.02, -187500.02, -187500.02, 0.000, 0.000, 0.000, 02:41:07.594
243, 29759.80, 8252.69, -187500.02, -187500.02, -187500.02, -187500.02, -187500.02, -187500.02, 0.000, 0.000, 0.000, 02:41:07.594
244, 29741.50, 8292.85, -187500.02, -187500.02, -187500.02, -187500.02, -187500.02, -187500.02, 0.220, 0.998, -0.088, 02:41:07.594
245, 29719.19, 8252.73, -187500.02, -187500.02, -187500.02, -187500.02, -187500.02, -187500.02, 0.000, 0.000, 0.000, 02:41:07.594
246, 29730.14, 8238.14, -187500.02, -187500.02, -187500.02, -187500.02, -187500.02, -187500.02, 0.000, 0.000, 0.000, 02:41:07.594
247, 29749.48, 8282.80, -187500.02, -187500.02, -187500.02, -187500.02, -187500.02, -187500.02, 0.000, 0.000, 0.000, 02:41:07.595
248, 29751.54, 8268.00, -187500.02, -187500.02, -187500.02, -187500.02, -187500.02, -187500.02, 0.000, 0.000, 0.000, 02:41:07.595
249, 29731.57, 8266.14, -187500.02, -187500.02, -187500.02, -187500.02, -187500.02, -187500.02, 0.000, 0.000, 0.000, 02:41:07.595
250, 29729.54, 8253.58, -187500.02, -187500.02, -187500.02, -187500.02, -187500.02, -187500.02, 0.000, 0.000, 0.000, 02:41:07.595
251, 29763.09, 8253.74, -187500.02, -187500.02, -187500.02, -187500.02, -187500.02, -187500.02, 0.000, 0.000, 0.000, 02:41:07.595
252, 29766.02, 8280.32, -187500.02, -187500.02, -187500.02, -187500.02, -187500.02, -187500.02, 0.000, 0.000, 0.000, 02:41:07.595
253, 29733.65, 8270.57, -187500.02, -187500.02, -187500.02, -187500.02, -187500.02, -187500.02, 0.220, 0.998, -0.088, 02:41:07.595
254, 29711.81, 8240.75, -187500.02, -187500.02, -187500.02, -187500.02, -187500.02, -187500.02, 0.000, 0.000, 0.000, 02:41:07.595
255, 29738.53, 8233.87, -187500.02, -187500.02, -187500.02, -187500.02, -187500.02, -187500.02, 0.000, 0.000, 0.000, 02:41:07.596
0, 29750.48, 8250.01, -187500.02, -187500.02, -187500.02, -187500.02, -187500.02, -187500.02, 0.000, 0.000, 0.000, 02:41:07.596
1, 29729.07, 8278.77, -187500.02, -187500.02, -187500.02, -187500.02, -187500.02, -187500.02, 0.000, 0.000, 0.000, 02:41:07.596
2, 29709.51, 8223.41, -187500.02, -187500.02, -187500.02, -187500.02, -187500.02, -187500.02, 0.000, 0.000, 0.000, 02:41:07.596
3, 29751.74, 8261.23, -187500.02, -187500.02, -187500.02, -187500.02, -187500.02, -187500.02, 0.000, 0.000, 0.000, 02:41:07.596
4, 29759.96, 8282.84, -187500.02, -187500.02, -187500.02, -187500.02, -187500.02, -187500.02, 0.000, 0.000, 0.000, 02:41:07.596
5, 29734.30, 8269.68, -187500.02, -187500.02, -187500.02, -187500.02, -187500.02, -187500.02, 0.000, 0.000, 0.000, 02:41:07.596
6, 29698.67, 8233.20, -187500.02, -187500.02, -187500.02, -187500.02, -187500.02, -187500.02, 0.000, 0.000, 0.000, 02:41:07.596
7, 29722.61, 8213.01, -187500.02, -187500.02, -187500.02, -187500.02, -187500.02, -187500.02, 0.214, 0.996, -0.090, 02:41:07.596
8, 29760.74, 8282.57, -187500.02, -187500.02, -187500.02, -187500.02, -187500.02, -187500.02, 0.000, 0.000, 0.000, 02:41:07.597
9, 29761.53, 8299.94, -187500.02, -187500.02, -187500.02, -187500.02, -187500.02, -187500.02, 0.000, 0.000, 0.000, 02:41:07.597
10, 29727.73, 8274.71, -187500.02, -187500.02, -187500.02, -187500.02, -187500.02, -187500.02, 0.000, 0.000, 0.000, 02:41:07.597
11, 29733.68, 8260.80, -187500.02, -187500.02, -187500.02, -187500.02, -187500.02, -187500.02, 0.000, 0.000, 0.000, 02:41:07.597
12, 29750.35, 8256.56, -187500.02, -187500.02, -187500.02, -187500.02, -187500.02, -187500.02, 0.000, 0.000, 0.000, 02:41:07.597
13, 29736.94, 8244.64, -187500.02, -187500.02, -187500.02, -187500.02, -187500.02, -187500.02, 0.000, 0.000, 0.000, 02:41:07.597
14, 29724.29, 8244.35, -187500.02, -187500.02, -187500.02, -187500.02, -187500.02, -187500.02, 0.000, 0.000, 0.000, 02:41:07.597
15, 29735.04, 8253.54, -187500.02, -187500.02, -187500.02, -187500.02, -187500.02, -187500.02, 0.000, 0.000, 0.000, 02:41:07.597
16, 29756.85, 8296.50, -187500.02, -187500.02, -187500.02, -187500.02, -187500.02, -187500.02, 0.000, 0.000, 0.000, 02:41:07.597
17, 29748.25, 8292.99, -187500.02, -187500.02, -187500.02, -187500.02, -187500.02, -187500.02, 0.218, 0.994, -0.094, 02:41:07.598
18, 29723.48, 8261.52, -187500.02, -187500.02, -187500.02, -187500.02, -187500.02, -187500.02, 0.000, 0.000, 0.000, 02:41:07.598
19, 29716.42, 8220.99, -187500.02, -187500.02, -187500.02, -187500.02, -187500.02, -187500.02, 0.000, 0.000, 0.000, 02:41:07.598
20, 29747.40, 8247.35, -187500.02, -187500.02, -187500.02, -187500.02, -187500.02, -187500.02, 0.000, 0.000, 0.000, 02:41:07.598
21, 29747.02, 8274.19, -187500.02, -187500.02, -187500.02, -187500.02, -187500.02, -187500.02, 0.000, 0.000, 0.000, 02:41:07.598
22, 29745.48, 8233.22, -187500.02, -187500.02, -187500.02, -187500.02, -187500.02, -187500.02, 0.000, 0.000, 0.000, 02:41:07.598
23, 29724.29, 8231.16, -187500.02, -187500.02, -187500.02, -187500.02, -187500.02, -187500.02, 0.000, 0.000, 0.000, 02:41:07.598
24, 29746.64, 8242.56, -187500.02, -187500.02, -187500.02, -187500.02, -187500.02, -187500.02, 0.000, 0.000, 0.000, 02:41:07.598
25, 29763.63, 8281.99, -187500.02, -187500.02, -187500.02, -187500.02, -187500.02, -187500.02, 0.000, 0.000, 0.000, 02:41:07.599
26, 29751.38, 8294.78, -187500.02, -187500.02, -187500.02, -187500.02, -187500.02, -187500.02, 0.000, 0.000, 0.000, 02:41:07.599
27, 29721.83, 8264.85, -187500.02, -187500.02, -187500.02, -187500.02, -187500.02, -187500.02, 0.222, 0.994, -0.090, 02:41:07.599
28, 29738.41, 8256.11, -187500.02, -187500.02, -187500.02, -187500.02, -187500.02, -187500.02, 0.000, 0.000, 0.000, 02:41:07.599
29, 29759.25, 8277.37, -187500.02, -187500.02, -187500.02, -187500.02, -187500.02, -187500.02, 0.000, 0.000, 0.000, 02:41:07.599
30, 29745.72, 8269.72, -187500.02, -187500.02, -187500.02, -187500.02, -187500.02, -187500.02, 0.000, 0.000, 0.000, 02:41:07.599
31, 29717.56, 8231.54, -187500.02, -187500.02, -187500.02, -187500.02, -187500.02, -187500.02, 0.000, 0.000, 0.000, 02:41:07.599
32, 29742.59, 8213.35, -187500.02, -187500.02, -187500.02, -187500.02, -187500.02, -187500.02, 0.000, 0.000, 0.000, 02:41:07.599
33, 29754.13, 8269.56, -187500.02, -187500.02, -187500.02, -187500.02, -187500.02, -187500.02, 0.000, 0.000, 0.000, 02:41:07.600
34, 29740.65, 8266.10, -187500.02, -187500.02, -187500.02, -187500.02, -187500.02, -187500.02, 0.000, 0.000, 0.000, 02:41:07.600
35, 29734.26, 8229.33, -187500.02, -187500.02, -187500.02, -187500.02, -187500.02, -187500.02, 0.000, 0.000, 0.000, 02:41:07.600
36, 29749.41, 8249.65, -187500.02, -187500.02, -187500.02, -187500.02, -187500.02, -187500.02, 0.000, 0.000, 0.000, 02:41:07.600
37, 29756.68, 8265.25, -187500.02, -187500.02, -187500.02, -187500.02, -187500.02, -187500.02, 0.222, 0.986, -0.088, 02:41:07.600
38, 29736.87, 8289.46, -187500.02, -187500.02, -187500.02, -187500.02, -187500.02, -187500.02, 0.000, 0.000, 0.000, 02:41:07.600
39, 29726.54, 8260.69, -187500.02, -187500.02, -187500.02, -187500.02, -187500.02, -187500.02, 0.000, 0.000, 0.000, 02:41:07.600
40, 29749.63, 8242.14, -187500.02, -187500.02, -187500.02, -187500.02, -187500.02, -187500.02, 0.000, 0.000, 0.000, 02:41:07.600
41, 29780.79, 8245.40, -187500.02, -187500.02, -187500.02, -187500.02, -187500.02, -187500.02, 0.000, 0.000, 0.000, 02:41:07.600
42, 29767.25, 8271.78, -187500.02, -187500.02, -187500.02, -187500.02, -187500.02, -187500.02, 0.000, 0.000, 0.000, 02:41:07.601
43, 29761.26, 8259.26, -187500.02, -187500.02, -187500.02, -187500.02, -187500.02, -187500.02, 0.000, 0.000, 0.000, 02:41:07.601
44, 29749.63, 8244.75, -187500.02, -187500.02, -187500.02, -187500.02, -187500.02, -187500.02, 0.000, 0.000, 0.000, 02:41:07.601
45, 29776.68, 8272.69, -187500.02, -187500.02, -187500.02, -187500.02, -187500.02, -187500.02, 0.000, 0.000, 0.000, 02:41:07.601
46, 29780.08, 8319.77, -187500.02, -187500.02, -187500.02, -187500.02, -187500.02, -187500.02, 0.000, 0.000, 0.000, 02:41:07.601
47, 29753.88, 8315.14, -187500.02, -187500.02, -187500.02, -187500.02, -187500.02, -187500.02, 0.220, 0.990, -0.092, 02:41:07.601
48, 29741.74, 8288.88, -187500.02, -187500.02, -187500.02, -187500.02, -187500.02, -187500.02, 0.000, 0.000, 0.000, 02:41:07.602
49, 29770.13, 8281.17, -187500.02, -187500.02, -187500.02, -187500.02, -187500.02, -187500.02, 0.000, 0.000, 0.000, 02:41:07.602
50, 29779.47, 8321.75, -187500.02, -187500.02, -187500.02, -187500.02, -187500.02, -187500.02, 0.000, 0.000, 0.000, 02:41:07.602
51, 29762.64, 8305.35, -187500.02, -187500.02, -187500.02, -187500.02, -187500.02, -187500.02, 0.000, 0.000, 0.000, 02:41:07.602
52, 29757.03, 8271.24, -187500.02, -187500.02, -187500.02, -187500.02, -187500.02, -187500.02, 0.000, 0.000, 0.000, 02:41:07.602
53, 29766.91, 8287.16, -187500.02, -187500.02, -187500.02, -187500.02, -187500.02, -187500.02, 0.000, 0.000, 0.000, 02:41:07.602
54, 29772.70, 8332.39, -187500.02, -187500.02, -187500.02, -187500.02, -187500.02, -187500.02, 0.000, 0.000, 0.000, 02:41:07.603
55, 29754.04, 8334.05, -187500.02, -187500.02, -187500.02, -187500.02, -187500.02, -187500.02, 0.000, 0.000, 0.000, 02:41:07.603
56, 29736.80, 8293.03, -187500.02, -187500.02, -187500.02, -187500.02, -187500.02, -187500.02, 0.220, 0.990, -0.090, 02:41:07.603
57, 29758.89, 8286.98, -187500.02, -187500.02, -187500.02, -187500.02, -187500.02, -187500.02, 0.000, 0.000, 0.000, 02:41:07.603
58, 29780.08, 8299.14, -187500.02, -187500.02, -187500.02, -187500.02, -187500.02, -187500.02, 0.000, 0.000, 0.000, 02:41:07.603
59, 29773.17, 8314.04, -187500.02, -187500.02, -187500.02, -187500.02, -187500.02, -187500.02, 0.000, 0.000, 0.000, 02:41:07.603
60, 29755.38, 8319.56, -187500.02, -187500.02, -187500.02, -187500.02, -187500.02, -187500.02, 0.000, 0.000, 0.000, 02:41:07.604
61, 29772.48, 8283.96, -187500.02, -187500.02, -187500.02, -187500.02, -187500.02, -187500.02, 0.000, 0.000, 0.000, 02:41:07.604
62, 29775.74, 8324.66, -187500.02, -187500.02, -187500.02, -187500.02, -187500.02, -187500.02, 0.000, 0.000, 0.000, 02:41:07.604
63, 29765.15, 8301.24, -187500.02, -187500.02, -187500.02, -187500.02, -187500.02, -187500.02, 0.000, 0.000, 0.000, 02:41:07.604
64, 29743.09, 8299.56, -187500.02, -187500.02, -187500.02, -187500.02, -187500.02, -187500.02, 0.000, 0.000, 0.000, 02:41:07.604
65, 29747.67, 8296.03, -187500.02, -187500.02, -187500.02, -187500.02, -187500.02, -187500.02, 0.000, 0.000, 0.000, 02:41:07.604
66, 29783.21, 8291.07, -187500.02, -187500.02, -187500.02, -187500.02, -187500.02, -187500.02, 0.218, 0.994, -0.094, 02:41:07.604
67, 29772.21, 8310.04, -187500.02, -187500.02, -187500.02, -187500.02, -187500.02, -187500.02, 0.000, 0.000, 0.000, 02:41:07.604
68, 29755.87, 8309.84, -187500.02, -187500.02, -187500.02, -187500.02, -187500.02, -187500.02, 0.000, 0.000, 0.000, 02:41:07.605
69, 29750.71, 8280.07, -187500.02, -187500.02, -187500.02, -187500.02, -187500.02, -187500.02, 0.000, 0.000, 0.000, 02:41:07.605
70, 29774.96, 8326.65, -187500.02, -187500.02, -187500.02, -187500.02, -187500.02, -187500.02, 0.000, 0.000, 0.000, 02:41:07.605
71, 29773.17, 8343.66, -187500.02, -187500.02, -187500.02, -187500.02, -187500.02, -187500.02, 0.000, 0.000, 0.000, 02:41:07.605
72, 29757.26, 8309.84, -187500.02, -187500.02, -187500.02, -187500.02, -187500.02, -187500.02, 0.000, 0.000, 0.000, 02:41:07.605
73, 29742.41, 8302.94, -187500.02, -187500.02, -187500.02, -187500.02, -187500.02, -187500.02, 0.000, 0.000, 0.000, 02:41:07.605
74, 29765.68, 8300.01, -187500.02, -187500.02, -187500.02, -187500.02, -187500.02, -187500.02, 0.000, 0.000, 0.000, 02:41:07.605
75, 29774.67, 8303.20, -187500.02, -187500.02, -187500.02, -187500.02, -187500.02, -187500.02, 0.000, 0.000, 0.000, 02:41:08.070
76, 29762.31, 8321.55, -187500.02, -187500.02, -187500.02, -187500.02, -187500.02, -187500.02, 0.212, 0.996, -0.088, 02:41:08.070
77, 29735.87, 8299.16, -187500.02, -187500.02, -187500.02, -187500.02, -187500.02, -187500.02, 0.000, 0.000, 0.000, 02:41:08.070
78, 29750.86, 8292.18, -187500.02, -187500.02, -187500.02, -187500.02, -187500.02, -187500.02, 0.000, 0.000, 0.000, 02:41:08.071
79, 29776.95, 8298.96, -187500.02, -187500.02, -187500.02, -187500.02, -187500.02, -187500.02, 0.000, 0.000, 0.000, 02:41:08.071
80, 29774.71, 8316.32, -187500.02, -187500.02, -187500.02, -187500.02, -187500.02, -187500.02, 0.000, 0.000, 0.000, 02:41:08.071
81, 29744.38, 8311.45, -187500.02, -187500.02, -187500.02, -187500.02, -187500.02, -187500.02, 0.000, 0.000, 0.000, 02:41:08.071
82, 29761.39, 8307.36, -187500.02, -187500.02, -187500.02, -187500.02, -187500.02, -187500.02, 0.000, 0.000, 0.000, 02:41:08.071
83, 29794.12, 8343.66, -187500.02, -187500.02, -187500.02, -187500.02, -187500.02, -187500.02, 0.000, 0.000, 0.000, 02:41:08.071
84, 29780.88, 8359.84, -187500.02, -187500.02, -187500.02, -187500.02, -187500.02, -187500.02, 0.000, 0.000, 0.000, 02:41:08.071
85, 29740.22, 8315.99, -187500.02, -187500.02, -187500.02, -187500.02, -187500.02, -187500.02, 0.000, 0.000, 0.000, 02:41:08.071
86, 29746.33, 8282.86, -187500.02, -187500.02, -187500.02, -187500.02, -187500.02, -187500.02, 0.214, 0.994, -0.086, 02:41:08.072
87, 29782.56, 8311.18, -187500.02, -187500.02, -187500.02, -187500.02, -187500.02, -187500.02, 0.000, 0.000, 0.000, 02:41:08.072
88, 29765.10, 8338.27, -187500.02, -187500.02, -187500.02, -187500.02, -187500.02, -187500.02, 0.000, 0.000, 0.000, 02:41:08.072
89, 29736.78, 8327.19, -187500.02, -187500.02, -187500.02, -187500.02, -187500.02, -187500.02, 0.000, 0.000, 0.000, 02:41:08.072
90, 29729.00, 8303.40, -187500.02, -187500.02, -187500.02, -187500.02, -187500.02, -187500.02, 0.000, 0.000, 0.000, 02:41:08.073
91, 29757.73, 8307.72, -187500.02, -187500.02, -187500.02, -187500.02, -187500.02, -187500.02, 0.000, 0.000, 0.000, 02:41:08.073
92, 29757.12, 8326.09, -187500.02, -187500.02, -187500.02, -187500.02, -187500.02, -187500.02, 0.000, 0.000, 0.000, 02:41:08.073
93, 29744.38, 8319.56, -187500.02, -187500.02, -187500.02, -187500.02, -187500.02, -187500.02, 0.000, 0.000, 0.000, 02:41:08.073
94, 29731.15, 8294.42, -187500.02, -187500.02, -187500.02, -187500.02, -187500.02, -187500.02, 0.000, 0.000, 0.000, 02:41:08.073
95, 29763.11, 8296.05, -187500.02, -187500.02, -187500.02, -187500.02, -187500.02, -187500.02, 0.000, 0.000, 0.000, 02:41:08.073
96, 29757.28, 8327.16, -187500.02, -187500.02, -187500.02, -187500.02, -187500.02, -187500.02, 0.220, 0.992, -0.086, 02:41:08.073
97, 29743.15, 8307.99, -187500.02, -187500.02, -187500.02, -187500.02, -187500.02, -187500.02, 0.000, 0.000, 0.000, 02:41:08.074
98, 29730.12, 8271.29, -187500.02, -187500.02, -187500.02, -187500.02, -187500.02, -187500.02, 0.000, 0.000, 0.000, 02:41:08.074
99, 29750.86, 8268.09, -187500.02, -187500.02, -187500.02, -187500.02, -187500.02, -187500.02, 0.000, 0.000, 0.000, 02:41:08.074
100, 29768.12, 8304.75, -187500.02, -187500.02, -187500.02, -187500.02, -187500.02, -187500.02, 0.000, 0.000, 0.000, 02:41:08.074
101, 29756.63, 8293.23, -187500.02, -187500.02, -187500.02, -187500.02, -187500.02, -187500.02, 0.000, 0.000, 0.000, 02:41:08.074
102, 29732.42, 8287.02, -187500.02, -187500.02, -187500.02, -187500.02, -187500.02, -187500.02, 0.000, 0.000, 0.000, 02:41:08.074
103, 29747.24, 8321.55, -187500.02, -187500.02, -187500.02, -187500.02, -187500.02, -187500.02, 0.000, 0.000, 0.000, 02:41:08.074
104, 29780.55, 8321.46, -187500.02, -187500.02, -187500.02, -187500.02, -187500.02, -187500.02, 0.000, 0.000, 0.000, 02:41:08.074
105, 29768.10, 8339.50, -187500.02, -187500.02, -187500.02, -187500.02, -187500.02, -187500.02, 0.000, 0.000, 0.000, 02:41:08.075
106, 29732.04, 8304.77, -187500.02, -187500.02, -187500.02, -187500.02, -187500.02, -187500.02, 0.220, 0.988, -0.086, 02:41:08.075
107, 29738.68, 8285.32, -187500.02, -187500.02, -187500.02, -187500.02, -187500.02, -187500.02, 0.000, 0.000, 0.000, 02:41:08.075
108, 29758.64, 8311.00, -187500.02, -187500.02, -187500.02, -187500.02, -187500.02, -187500.02, 0.000, 0.000, 0.000, 02:41:08.075
109, 29754.33, 8319.95, -187500.02, -187500.02, -187500.02, -187500.02, -187500.02, -187500.02, 0.000, 0.000, 0.000, 02:41:08.075
110, 29737.79, 8304.50, -187500.02, -187500.02, -187500.02, -187500.02, -187500.02, -187500.02, 0.000, 0.000, 0.000, 02:41:08.075
111, 29736.04, 8279.22, -187500.02, -187500.02, -187500.02, -187500.02, -187500.02, -187500.02, 0.000, 0.000, 0.000, 02:41:08.075
112, 29760.59, 8304.05, -187500.02, -187500.02, -187500.02, -187500.02, -187500.02, -187500.02, 0.000, 0.000, 0.000, 02:41:08.076
113, 29759.67, 8328.17, -187500.02, -187500.02, -187500.02, -187500.02, -187500.02, -187500.02, 0.000, 0.000, 0.000, 02:41:08.076
114, 29740.43, 8297.82, -187500.02, -187500.02, -187500.02, -187500.02, -187500.02, -187500.02, 0.000, 0.000, 0.000, 02:41:08.076
115, 29729.70, 8277.07, -187500.02, -187500.02, -187500.02, -187500.02, -187500.02, -187500.02, 0.000, 0.000, 0.000, 02:41:08.076
116, 29764.81, 8290.96, -187500.02, -187500.02, -187500.02, -187500.02, -187500.02, -187500.02, 0.222, 0.994, -0.090, 02:41:08.076
117, 29777.13, 8325.78, -187500.02, -187500.02, -187500.02, -187500.02, -187500.02, -187500.02, 0.000, 0.000, 0.000, 02:41:08.076
118, 29755.29, 8336.33, -187500.02, -187500.02, -187500.02, -187500.02, -187500.02, -187500.02, 0.000, 0.000, 0.000, 02:41:08.076
119, 29733.83, 8303.00, -187500.02, -187500.02, -187500.02, -187500.02, -187500.02, -187500.02, 0.000, 0.000, 0.000, 02:41:08.076
120, 29766.60, 8314.38, -187500.02, -187500.02, -187500.02, -187500.02, -187500.02, -187500.02, 0.000, 0.000, 0.000, 02:41:08.076
121, 29779.14, 8329.06, -187500.02, -187500.02, -187500.02, -187500.02, -187500.02, -187500.02, 0.000, 0.000, 0.000, 02:41:08.077
122, 29747.06, 8306.62, -187500.02, -187500.02, -187500.02, -187500.02, -187500.02, -187500.02, 0.000, 0.000, 0.000, 02:41:08.077
123, 29727.24, 8265.32, -187500.02, -187500.02, -187500.02, -187500.02, -187500.02, -187500.02, 0.000, 0.000, 0.000, 02:41:08.077
124, 29742.71, 8284.14, -187500.02, -187500.02, -187500.02, -187500.02, -187500.02, -187500.02, 0.000, 0.000, 0.000, 02:41:08.077
125, 29758.98, 8322.34, -187500.02, -187500.02, -187500.02, -187500.02, -187500.02, -187500.02, 0.216, 0.994, -0.090, 02:41:08.077
126, 29743.04, 8322.40, -187500.02, -187500.02, -187500.02, -187500.02, -187500.02, -187500.02, 0.000, 0.000, 0.000, 02:41:08.077
127, 29730.17, 8278.68, -187500.02, -187500.02, -187500.02, -187500.02, -187500.02, -187500.02, 0.000, 0.000, 0.000, 02:41:08.077
128, 29751.94, 8287.13, -187500.02, -187500.02, -187500.02, -187500.02, -187500.02, -187500.02, 0.000, 0.000, 0.000, 02:41:08.077
129, 29760.92, 8316.55, -187500.02, -187500.02, -187500.02, -187500.02, -187500.02, -187500.02, 0.000, 0.000, 0.000, 02:41:08.078
130, 29746.75, 8321.84, -187500.02, -187500.02, -187500.02, -187500.02, -187500.02, -187500.02, 0.000, 0.000, 0.000, 02:41:08.078
131, 29732.51, 8273.63, -187500.02, -187500.02, -187500.02, -187500.02, -187500.02, -187500.02, 0.000, 0.000, 0.000, 02:41:08.078
132, 29749.90, 8276.36, -187500.02, -187500.02, -187500.02, -187500.02, -187500.02, -187500.02, 0.000, 0.000, 0.000, 02:41:08.078
133, 29775.85, 8296.77, -187500.02, -187500.02, -187500.02, -187500.02, -187500.02, -187500.02, 0.000, 0.000, 0.000, 02:41:08.078
134, 29767.20, 8313.08, -187500.02, -187500.02, -187500.02, -187500.02, -187500.02, -187500.02, 0.000, 0.000, 0.000, 02:41:08.078
135, 29741.65, 8306.96, -187500.02, -187500.02, -187500.02, -187500.02, -187500.02, -187500.02, 0.218, 0.988, -0.088, 02:41:08.078
136, 29739.73, 8282.86, -187500.02, -187500.02, -187500.02, -187500.02, -187500.02, -187500.02, 0.000, 0.000, 0.000, 02:41:08.078
137, 29761.66, 8312.26, -187500.02, -187500.02, -187500.02, -187500.02, -187500.02, -187500.02, 0.000, 0.000, 0.000, 02:41:08.078
138, 29775.70, 8327.32, -187500.02, -187500.02, -187500.02, -187500.02, -187500.02, -187500.02, 0.000, 0.000, 0.000, 02:41:08.079
139, 29758.62, 8315.00, -187500.02, -187500.02, -187500.02, -187500.02, -187500.02, -187500.02, 0.000, 0.000, 0.000, 02:41:08.079
140, 29757.90, 8293.44, -187500.02, -187500.02, -187500.02, -187500.02, -187500.02, -187500.02, 0.000, 0.000, 0.000, 02:41:08.079
141, 29785.64, 8309.42, -187500.02, -187500.02, -187500.02, -187500.02, -187500.02, -187500.02, 0.000, 0.000, 0.000, 02:41:08.079
142, 29767.74, 8330.34, -187500.02, -187500.02, -187500.02, -187500.02, -187500.02, -187500.02, 0.000, 0.000, 0.000, 02:41:08.079
143, 29752.56, 8291.78, -187500.02, -187500.02, -187500.02, -187500.02, -187500.02, -187500.02, 0.000, 0.000, 0.000, 02:41:08.079
144, 29731.26, 8261.16, -187500.02, -187500.02, -187500.02, -187500.02, -187500.02, -187500.02, 0.000, 0.000, 0.000, 02:41:08.079
145, 29749.86, 8286.19, -187500.02, -187500.02, -187500.02, -187500.02, -187500.02, -187500.02, 0.218, 0.994, -0.092, 02:41:08.079
146, 29760.90, 8313.87, -187500.02, -187500.02, -187500.02, -187500.02, -187500.02, -187500.02, 0.000, 0.000, 0.000, 02:41:08.079
147, 29753.30, 8319.43, -187500.02, -187500.02, -187500.02, -187500.02, -187500.02, -187500.02, 0.000, 0.000, 0.000, 02:41:08.079
148, 29716.15, 8304.16, -187500.02, -187500.02, -187500.02, -187500.02, -187500.02, -187500.02, 0.000, 0.000, 0.000, 02:41:08.080
149, 29735.33, 8300.59, -187500.02, -187500.02, -187500.02, -187500.02, -187500.02, -187500.02, 0.000, 0.000, 0.000, 02:41:08.080
150, 29757.14, 8306.98, -187500.02, -187500.02, -187500.02, -187500.02, -187500.02, -187500.02, 0.000, 0.000, 0.000, 02:41:08.080
151, 29745.81, 8290.37, -187500.02, -187500.02, -187500.02, -187500.02, -187500.02, -187500.02, 0.000, 0.000, 0.000, 02:41:08.080
152, 29724.29, 8272.72, -187500.02, -187500.02, -187500.02, -187500.02, -187500.02, -187500.02, 0.000, 0.000, 0.000, 02:41:08.080
153, 29743.62, 8284.52, -187500.02, -187500.02, -187500.02, -187500.02, -187500.02, -187500.02, 0.000, 0.000, 0.000, 02:41:08.080
154, 29764.16, 8307.94, -187500.02, -187500.02, -187500.02, -187500.02, -187500.02, -187500.02, 0.000, 0.000, 0.000, 02:41:08.080
155, 29744.29, 8294.87, -187500.02, -187500.02, -187500.02, -187500.02, -187500.02, -187500.02, 0.222, 0.996, -0.086, 02:41:08.080
